time (s)	coil I (A)	last det (V)	int current (uC)
9856.532030	1.322754	0.308376	689.154785
9856.532966	1.719807	0.308376	2298.894287
9856.533830	1.690884	0.308376	3759.817871
9856.534917	1.634821	0.308376	5536.867676
9856.535931	1.582943	0.308376	7141.971680
9856.536814	1.540060	0.308376	8501.844727
9856.537810	1.493958	0.308376	9989.826172
9856.538856	1.446705	0.308376	11503.080078
9856.539767	1.407979	0.308376	12785.748047
9856.540633	1.370786	0.308376	13972.848633
9856.541736	0.722172	0.308376	14769.404297
9856.542733	0.092626	0.308376	14861.751953
9856.543609	0.090699	0.308376	14941.205078
9856.544604	0.090699	0.308376	15031.451172
9856.545660	0.090762	0.308376	15127.295898
9856.546539	0.090710	0.308376	15207.030273
9856.547406	0.090773	0.308376	15285.730469
9856.548513	0.090769	0.308376	15386.211914
9856.549484	0.090615	0.308376	15474.199219
9856.550346	0.090663	0.308376	15552.350586
9856.551398	0.090820	0.308376	15647.893555
9857.528250	1.208082	0.348829	509.810699
9857.529308	1.718862	0.348829	2328.366943
9857.530196	1.689591	0.348829	3828.723633
9857.531065	1.644122	0.348829	5257.465820
9857.532063	1.593094	0.348829	6847.374023
9857.532994	1.546414	0.348829	8287.084961
9857.533927	1.503113	0.348829	9689.489258
9857.534797	1.462350	0.348829	10961.733398
9857.535840	1.418452	0.348829	12441.178711
9857.536740	1.381058	0.348829	13684.130859
9857.537618	1.247285	0.348829	14779.247070
9857.538622	0.188284	0.348829	14968.284180
9857.539567	0.090586	0.348829	15053.887695
9857.540481	0.090707	0.348829	15136.793945
9857.541351	0.090623	0.348829	15215.635742
9857.542387	0.090725	0.348829	15309.626953
9857.543259	0.090579	0.348829	15388.611328
9857.544131	0.090656	0.348829	15467.663086
9857.545060	0.090784	0.348829	15552.000977
9857.546050	0.090604	0.348829	15641.699219
9857.546961	0.090623	0.348829	15724.256836
9858.567746	1.314987	0.356801	739.022461
9858.568808	1.718181	0.356801	2563.730957
9858.569717	1.681000	0.356801	4091.759766
9858.570589	1.633019	0.356801	5515.751953
9858.571713	1.578065	0.356801	7289.497070
9858.572674	1.532095	0.356801	8761.839844
9858.573544	1.490427	0.356801	10058.511719
9858.574609	1.443717	0.356801	11596.070312
9858.575632	1.400768	0.356801	13029.055664
9858.576515	1.363876	0.356801	14233.357422
9858.577458	0.686624	0.356801	14880.843750
9858.578513	0.091967	0.356801	14977.868164
9858.579440	0.090681	0.356801	15061.929687
9858.580301	0.090677	0.356801	15140.002930
9858.581357	0.090754	0.356801	15235.839844
9858.582375	0.090667	0.356801	15328.138672
9858.583244	0.090670	0.356801	15406.930664
9858.584203	0.090780	0.356801	15493.988281
9858.585258	0.090670	0.356801	15589.645508
9858.586187	0.090703	0.356801	15673.909180
9858.587054	0.090696	0.356801	15752.541992
9859.571225	1.278750	0.358150	644.490051
9859.572254	1.719188	0.358150	2413.534668
9859.573128	1.687130	0.358150	3888.086426
9859.574105	1.637062	0.358150	5487.495605
9859.575160	1.582745	0.358150	7157.291992
9859.576088	1.537526	0.358150	8584.116211
9859.576949	1.495638	0.358150	9871.861328
9859.578036	1.448137	0.358150	11445.986328
9859.579040	1.405448	0.358150	12857.055664
9859.579921	1.368761	0.358150	14062.933594
9859.580911	0.757236	0.358150	14812.597656
9859.581963	0.093197	0.358150	14910.640625
9859.582849	0.090677	0.358150	14990.980469
9859.583714	0.090732	0.358150	15069.463867
9859.584818	0.090791	0.358150	15169.697266
9859.585803	0.090593	0.358150	15258.931641
9859.586695	0.090659	0.358150	15339.799805
9859.587679	0.090809	0.358150	15429.156250
9859.588737	0.090721	0.358150	15525.139648
9859.589624	0.090707	0.358150	15605.596680
9859.590504	0.090773	0.358150	15685.476562
9860.609477	1.213184	0.372999	531.374451
9860.610340	1.712933	0.372999	2009.635986
9860.611462	1.686665	0.372999	3902.074219
9860.612439	1.635970	0.372999	5500.417480
9860.613312	1.590981	0.372999	6889.344238
9860.614364	1.540151	0.372999	8509.583984
9860.615402	1.491013	0.372999	10057.255859
9860.616296	1.450660	0.372999	11354.146484
9860.617228	1.411227	0.372999	12669.410156
9860.618300	1.366901	0.372999	14134.727539
9860.619229	0.777078	0.372999	14856.632812
9860.620086	0.098580	0.372999	14941.116211
9860.621137	0.090820	0.372999	15036.568359
9860.622148	0.090765	0.372999	15128.332031
9860.623034	0.090710	0.372999	15208.701172
9860.623996	0.090802	0.372999	15296.052734
9860.625054	0.090780	0.372999	15392.097656
9860.625971	0.090677	0.372999	15475.249023
9860.626827	0.090751	0.372999	15552.931641
9860.627874	0.090857	0.372999	15648.058594
9860.628887	0.090762	0.372999	15740.000000
9861.607973	1.300356	0.373575	672.284241
9861.608939	1.719375	0.373575	2333.200439
9861.609816	1.689426	0.373575	3814.827148
9861.610853	1.635714	0.373575	5511.062500
9861.611900	1.582694	0.373575	7168.143066
9861.612781	1.539071	0.373575	8524.064453
9861.613676	1.495411	0.373575	9862.458008
9861.614766	1.447903	0.373575	11440.671875
9861.615721	1.407686	0.373575	12785.011719
9861.616584	1.371394	0.373575	13968.524414
9861.617650	0.764561	0.373575	14783.545898
9861.618683	0.093245	0.373575	14879.867187
9861.619556	0.090608	0.373575	14958.967773
9861.620503	0.090699	0.373575	15044.860352
9861.621561	0.090685	0.373575	15140.804687
9861.622496	0.090721	0.373575	15225.628906
9861.623366	0.090688	0.373575	15304.528320
9861.624397	0.090839	0.373575	15398.182617
9861.625414	0.090714	0.373575	15490.438477
9861.626302	0.090670	0.373575	15570.953125
9861.627258	0.090857	0.373575	15657.812500
9862.651410	1.275754	0.388693	640.428711
9862.652335	1.718558	0.388693	2230.095215
9862.653207	1.691982	0.388693	3705.503906
9862.654236	1.638453	0.388693	5391.472656
9862.655269	1.585609	0.388693	7029.407227
9862.656162	1.542407	0.388693	8406.777344
9862.657120	1.497817	0.388693	9841.686523
9862.658171	1.450042	0.388693	11365.679687
9862.659104	1.410615	0.388693	12681.783203
9862.659972	1.373196	0.388693	13873.716797
9862.661064	0.799838	0.388693	14747.139648
9862.662063	0.094069	0.388693	14841.114258
9862.662958	0.090699	0.388693	14922.290039
9862.663949	0.090806	0.388693	15012.278320
9862.664991	0.090754	0.388693	15106.844727
9862.665890	0.090688	0.388693	15188.374023
9862.666749	0.090736	0.388693	15266.316406
9862.667847	0.090839	0.388693	15366.057617
9862.668844	0.090707	0.388693	15456.492187
9862.669721	0.090721	0.388693	15536.054687
9862.670725	0.090773	0.388693	15627.190430
9863.645639	1.204050	0.384334	526.169922
9863.646505	1.713314	0.384334	2009.900024
9863.647575	1.688840	0.384334	3816.958984
9863.648580	1.635952	0.384334	5461.090820
9863.649470	1.590820	0.384334	6876.920898
9863.650445	1.543612	0.384334	8381.942383
9863.651497	1.493903	0.384334	9953.527344
9863.652404	1.452528	0.384334	11270.970703
9863.653267	1.414849	0.384334	12491.985352
9863.654362	1.370702	0.384334	13992.904297
9863.655371	0.797377	0.384334	14797.457031
9863.656243	0.098862	0.384334	14883.665039
9863.657233	0.090743	0.384334	14973.500977
9863.658291	0.090681	0.384334	15069.441406
9863.659178	0.090659	0.384334	15149.856445
9863.660034	0.090721	0.384334	15227.513672
9863.661135	0.090710	0.384334	15327.385742
9863.662106	0.090652	0.384334	15415.408203
9863.662974	0.090696	0.384334	15494.131836
9863.664009	0.090754	0.384334	15588.062500
9863.665057	0.090718	0.384334	15683.134766
9864.690201	1.238046	0.401052	643.783752
9864.691253	1.717185	0.401052	2450.262451
9864.692198	1.681754	0.401052	4039.520020
9864.693060	1.635476	0.401052	5449.300293
9864.694122	1.581918	0.401052	7129.296875
9864.695140	1.532454	0.401052	8689.334961
9864.696029	1.490790	0.401052	10014.647461
9864.697000	1.447603	0.401052	11420.269531
9864.698066	1.402961	0.401052	12915.826172
9864.698982	1.364604	0.401052	14165.803711
9864.699856	0.773060	0.401052	14841.458008
9864.700951	0.092688	0.401052	14942.951172
9864.701943	0.090692	0.401052	15032.917969
9864.702836	0.090637	0.401052	15113.857422
9864.703815	0.090897	0.401052	15202.845703
9864.704871	0.090659	0.401052	15298.582031
9864.705765	0.090619	0.401052	15379.595703
9864.706631	0.090743	0.401052	15458.179687
9864.707738	0.090831	0.401052	15558.729492
9864.708690	0.090729	0.401052	15645.103516
9864.709547	0.090685	0.401052	15722.820312
9865.682366	1.194291	0.350098	507.573578
9865.683258	1.711688	0.350098	2034.399536
9865.684352	1.686317	0.350098	3879.230469
9865.685322	1.636227	0.350098	5466.370605
9865.686189	1.591604	0.350098	6846.291016
9865.687238	1.540551	0.350098	8462.328125
9865.688257	1.492467	0.350098	9983.152344
9865.689144	1.452385	0.350098	11271.417969
9865.690093	1.412388	0.350098	12611.773437
9865.691152	1.368523	0.350098	14061.039062
9865.692089	0.831266	0.350098	14839.935547
9865.692947	0.101378	0.350098	14926.917969
9865.694018	0.090729	0.350098	15024.088867
9865.695023	0.090677	0.350098	15115.219727
9865.695892	0.090579	0.350098	15193.932617
9865.696851	0.090769	0.350098	15280.980469
9865.697937	0.090681	0.350098	15379.459961
9865.698837	0.090699	0.350098	15461.089844
9865.699704	0.090721	0.350098	15539.745117
9865.700780	0.090776	0.350098	15637.420898
9865.701777	0.090667	0.350098	15727.815430
9866.731985	1.212935	0.370034	537.330017
9866.732845	1.713472	0.370034	2010.915527
9866.733910	1.689294	0.370034	3810.014160
9866.734926	1.636399	0.370034	5472.595703
9866.735802	1.590981	0.370034	6866.295410
9866.736768	1.543956	0.370034	8357.756836
9866.737830	1.493533	0.370034	9943.888672
9866.738747	1.452283	0.370034	11275.631836
9866.739617	1.414153	0.370034	12505.945312
9866.740712	1.369662	0.370034	14005.724609
9866.741704	0.799105	0.370034	14798.437500
9866.742597	0.097716	0.370034	14885.698242
9866.743593	0.090780	0.370034	14976.115234
9866.744652	0.090685	0.370034	15072.150391
9866.745545	0.090681	0.370034	15153.128906
9866.746408	0.090758	0.370034	15231.453125
9866.747515	0.090754	0.370034	15331.917969
9866.748476	0.090619	0.370034	15419.002930
9866.749343	0.090645	0.370034	15497.591797
9866.750404	0.090828	0.370034	15593.959961
9866.751433	0.090692	0.370034	15687.282227
9867.716022	1.186183	0.355334	498.196808
9867.717070	1.716281	0.355334	2296.858887
9867.718104	1.681827	0.355334	4035.868408
9867.718998	1.635205	0.355334	5497.741699
9867.719975	1.586232	0.355334	7047.490234
9867.721036	1.534083	0.355334	8675.152344
9867.721955	1.490552	0.355334	10044.969727
9867.722818	1.450866	0.355334	11297.066406
9867.723890	1.406602	0.355334	12804.943359
9867.724890	1.364982	0.355334	14169.924805
9867.725778	0.783636	0.355334	14865.793945
9867.726701	0.096588	0.355334	14954.944336
9867.727562	0.090634	0.355334	15032.979492
9867.728560	0.090619	0.355334	15123.416992
9867.729464	0.090637	0.355334	15205.353516
9867.730342	0.090637	0.355334	15284.932617
9867.731356	0.090732	0.355334	15376.935547
9867.732250	0.090645	0.355334	15457.971680
9867.733161	0.090641	0.355334	15540.545898
9867.734038	0.090670	0.355334	15620.063477
9867.734994	0.090601	0.355334	15706.677734
9868.774877	1.240693	0.345429	553.349243
9868.775766	1.715050	0.345429	2078.028809
9868.776636	1.696795	0.345429	3554.239990
9868.777653	1.644888	0.345429	5227.090820
9868.778569	1.595911	0.345429	6688.944824
9868.779490	1.550834	0.345429	8117.262695
9868.780374	1.508254	0.345429	9450.559570
9868.781409	1.461577	0.345429	10963.291992
9868.782309	1.423107	0.345429	12244.087891
9868.783191	1.386661	0.345429	13467.123047
9868.784175	1.229169	0.345429	14676.625000
9868.785132	0.181904	0.345429	14850.707031
9868.786049	0.090619	0.345429	14933.804687
9868.786914	0.090721	0.345429	15012.278320
9868.787951	0.090667	0.345429	15106.299805
9868.788829	0.090645	0.345429	15185.885742
9868.789700	0.090663	0.345429	15264.853516
9868.790647	0.090714	0.345429	15350.759766
9868.791640	0.090652	0.345429	15440.777344
9868.792546	0.090641	0.345429	15522.898437
9868.793422	0.090659	0.345429	15602.315430
9869.752758	1.184520	0.374807	497.498505
9869.753750	1.712882	0.374807	2196.677490
9869.754751	1.686054	0.374807	3884.416992
9869.755643	1.639834	0.374807	5347.148926
9869.756507	1.593519	0.374807	6723.949219
9869.757614	1.541656	0.374807	8430.562500
9869.758519	1.498440	0.374807	9786.650391
9869.759399	1.458497	0.374807	11070.127930
9869.760419	1.415640	0.374807	12514.080078
9869.761429	1.373024	0.374807	13900.833984
9869.762325	1.038263	0.374807	14831.117187
9869.763189	0.126636	0.374807	14940.530273
9869.764275	0.090630	0.374807	15038.954102
9869.765172	0.090703	0.374807	15120.314453
9869.766038	0.090582	0.374807	15198.758789
9869.767046	0.090754	0.374807	15290.239258
9869.768044	0.090703	0.374807	15380.760742
9869.768920	0.090688	0.374807	15460.204102
9869.769786	0.090787	0.374807	15538.826172
9869.770889	0.090725	0.374807	15638.895508
9869.771795	0.090670	0.374807	15721.042969
9870.813740	1.315942	0.363605	698.765442
9870.814703	1.718877	0.363605	2354.043945
9870.815589	1.687742	0.363605	3849.383301
9870.816460	1.639552	0.363605	5277.433105
9870.817605	1.584639	0.363605	7091.844727
9870.818500	1.540496	0.363605	8470.587891
9870.819367	1.499275	0.363605	9770.458984
9870.820425	1.451887	0.363605	11306.555664
9870.821401	1.410718	0.363605	12683.416016
9870.822276	1.373961	0.363605	13885.631836
9870.823151	0.992787	0.363605	14754.320312
9870.824273	0.103026	0.363605	14869.916016
9870.825151	0.090634	0.363605	14949.492187
9870.826006	0.090692	0.363605	15027.034180
9870.827086	0.090835	0.363605	15125.135742
9870.828065	0.090663	0.363605	15213.894531
9870.828935	0.090710	0.363605	15292.812500
9870.829798	0.090729	0.363605	15371.111328
9870.830917	0.090784	0.363605	15472.698242
9870.831829	0.090623	0.363605	15555.345703
9870.832689	0.090659	0.363605	15633.312500
9871.793689	1.285195	0.368185	655.449646
9871.794653	1.718602	0.368185	2312.182373
9871.795514	1.689979	0.368185	3767.254395
9871.796553	1.635571	0.368185	5466.612793
9871.797592	1.583210	0.368185	7111.568359
9871.798483	1.539357	0.368185	8483.134766
9871.799424	1.495115	0.368185	9890.038086
9871.800504	1.446401	0.368185	11452.151367
9871.801451	1.406664	0.368185	12784.261719
9871.802328	1.369874	0.368185	13985.641602
9871.803381	0.745118	0.368185	14770.250977
9871.804399	0.092666	0.368185	14864.584961
9871.805285	0.090630	0.368185	14944.882812
9871.806243	0.090762	0.368185	15031.833008
9871.807292	0.090754	0.368185	15127.034180
9871.808217	0.090685	0.368185	15210.917969
9871.809080	0.090645	0.368185	15289.144531
9871.810139	0.090754	0.368185	15385.253906
9871.811123	0.090685	0.368185	15474.487305
9871.812006	0.090626	0.368185	15554.509766
9871.812993	0.090765	0.368185	15644.094727
9872.854467	1.214985	0.370191	528.518555
9872.855347	1.713896	0.370191	2036.747437
9872.856364	1.690364	0.370191	3755.847412
9872.857425	1.635765	0.370191	5491.394531
9872.858318	1.589418	0.370191	6910.744629
9872.859212	1.544634	0.370191	8291.647461
9872.860312	1.493474	0.370191	9934.468750
9872.861277	1.450660	0.370191	11334.356445
9872.862151	1.413274	0.370191	12569.557617
9872.863197	1.370054	0.370191	14002.633789
9872.864216	0.780059	0.370191	14797.513672
9872.865107	0.097225	0.370191	14884.141602
9872.866062	0.090703	0.370191	14970.762695
9872.867118	0.090751	0.370191	15066.595703
9872.868038	0.090637	0.370191	15149.982422
9872.868894	0.090692	0.370191	15227.615234
9872.869956	0.090802	0.370191	15324.046875
9872.870970	0.090714	0.370191	15416.031250
9872.871847	0.090707	0.370191	15495.581055
9872.872820	0.090740	0.370191	15583.871094
9872.873883	0.090729	0.370191	15680.315430
9873.831375	1.214645	0.349977	534.443726
9873.832236	1.712530	0.349977	2008.932495
9873.833347	1.686508	0.349977	3882.642578
9873.834353	1.633253	0.349977	5525.695312
9873.835233	1.588480	0.349977	6923.557617
9873.836246	1.540129	0.349977	8483.708984
9873.837312	1.490164	0.349977	10072.223633
9873.838201	1.449441	0.349977	11360.776367
9873.839085	1.410165	0.349977	12607.362305
9873.840194	1.365985	0.349977	14122.240234
9873.841152	0.732909	0.349977	14824.367187
9873.842018	0.096211	0.349977	14907.685547
9873.843035	0.090754	0.349977	14999.982422
9873.844094	0.090634	0.349977	15095.962891
9873.844987	0.090696	0.349977	15176.954102
9873.845926	0.090681	0.349977	15262.103516
9873.846985	0.090714	0.349977	15358.169922
9873.847922	0.090564	0.349977	15443.028320
9873.848791	0.090656	0.349977	15521.807617
9873.849859	0.090743	0.349977	15618.721680
9873.850863	0.090637	0.349977	15709.721680
9874.892218	1.205555	0.355794	507.538849
9874.893311	1.716606	0.355794	2383.789551
9874.894269	1.682728	0.355794	3995.843262
9874.895150	1.636923	0.355794	5437.972168
9874.896145	1.586250	0.355794	7016.291016
9874.897208	1.535420	0.355794	8648.442383
9874.898103	1.492397	0.355794	9984.137695
9874.898986	1.451290	0.355794	11265.626953
9874.900088	1.406085	0.355794	12815.132812
9874.901050	1.366487	0.355794	14129.693359
9874.901923	0.857853	0.355794	14878.598633
9874.902954	0.096002	0.355794	14977.577148
9874.903986	0.090721	0.355794	15071.202148
9874.904885	0.090732	0.355794	15152.770508
9874.905828	0.090791	0.355794	15238.386719
9874.906875	0.090857	0.355794	15333.513672
9874.907816	0.090747	0.355794	15418.906250
9874.908676	0.090762	0.355794	15496.960937
9874.909740	0.090839	0.355794	15593.613281
9874.910744	0.090802	0.355794	15684.778320
9874.911624	0.090740	0.355794	15764.628906
9875.871186	1.224375	0.365723	537.500610
9875.872052	1.712974	0.365723	2020.935791
9875.873154	1.686592	0.365723	3879.560059
9875.874145	1.634147	0.365723	5498.999512
9875.875026	1.589612	0.365723	6899.447266
9875.876024	1.541433	0.365723	8437.797852
9875.877071	1.491987	0.365723	9999.908203
9875.877968	1.451158	0.365723	11301.597656
9875.878840	1.412527	0.365723	12533.321289
9875.879951	1.368530	0.365723	14053.758789
9875.880919	0.799896	0.365723	14828.058594
9875.881776	0.099111	0.365723	14912.997070
9875.882818	0.090864	0.365723	15007.677734
9875.883854	0.090857	0.365723	15101.805664
9875.884739	0.090703	0.365723	15182.078125
9875.885653	0.090758	0.365723	15265.031250
9875.886722	0.090875	0.365723	15362.176758
9875.887673	0.090769	0.365723	15448.498047
9875.888538	0.090740	0.365723	15526.988281
9875.889584	0.090842	0.365723	15622.009766
9875.890603	0.090765	0.365723	15714.500000
9876.930097	1.304399	0.331721	695.244873
9876.931020	1.718057	0.331721	2281.011230
9876.931883	1.689441	0.331721	3738.998535
9876.932966	1.634315	0.331721	5508.961914
9876.933977	1.583035	0.331721	7109.410156
9876.934858	1.539880	0.331721	8466.044922
9876.935819	1.494430	0.331721	9902.192383
9876.936883	1.447101	0.331721	11441.908203
9876.937794	1.408202	0.331721	12724.780273
9876.938669	1.370303	0.331721	13923.794922
9876.939759	0.751029	0.331721	14742.416992
9876.940748	0.093135	0.331721	14834.527344
9876.941628	0.090688	0.331721	14914.333008
9876.942608	0.090740	0.331721	15003.257812
9876.943651	0.090729	0.331721	15097.887695
9876.944545	0.090718	0.331721	15178.989258
9876.945416	0.090747	0.331721	15258.030273
9876.946528	0.090820	0.331721	15359.022461
9876.947491	0.090659	0.331721	15446.327148
9876.948353	0.090645	0.331721	15524.462891
9876.949383	0.090875	0.331721	15618.064453
9877.914052	1.193328	0.384866	513.130859
9877.914924	1.712827	0.384866	2006.716064
9877.915974	1.689042	0.384866	3780.209961
9877.917020	1.634491	0.384866	5489.887695
9877.917915	1.588693	0.384866	6911.767578
9877.918863	1.542949	0.384866	8374.483398
9877.919903	1.493262	0.384866	9927.475586
9877.920840	1.451327	0.384866	11287.369141
9877.921705	1.413981	0.384866	12510.462891
9877.922784	1.369761	0.384866	13988.434570
9877.923813	0.770024	0.384866	14780.790039
9877.924690	0.097412	0.384866	14866.220703
9877.925668	0.090688	0.384866	14954.914062
9877.926715	0.090677	0.384866	15049.853516
9877.927629	0.090604	0.384866	15132.666016
9877.928483	0.090736	0.384866	15210.154297
9877.929565	0.090751	0.384866	15308.346680
9877.930561	0.090659	0.384866	15398.643555
9877.931431	0.090670	0.384866	15477.526367
9877.932415	0.090820	0.384866	15566.893555
9877.933462	0.090795	0.384866	15661.956055
9878.965690	1.186926	0.343769	503.256714
9878.966726	1.715687	0.343769	2280.708740
9878.967612	1.689547	0.343769	3777.647461
9878.968483	1.643895	0.343769	5209.480469
9878.969487	1.592596	0.343769	6808.447266
9878.970496	1.542806	0.343769	8365.138672
9878.971396	1.500366	0.343769	9715.468750
9878.972267	1.459032	0.343769	10986.285156
9878.973375	1.413988	0.343769	12552.984375
9878.974285	1.375565	0.343769	13804.749023
9878.975166	1.138546	0.343769	14807.808594
9878.976166	0.135875	0.343769	14943.683594
9878.977158	0.090674	0.343769	15033.631836
9878.978052	0.090645	0.343769	15114.667969
9878.978912	0.090769	0.343769	15192.729492
9878.980016	0.090747	0.343769	15292.914062
9878.980912	0.090659	0.343769	15374.144531
9878.981780	0.090648	0.343769	15452.827148
9878.982788	0.090850	0.343769	15544.403320
9878.983786	0.090656	0.343769	15634.877930
9878.984677	0.090729	0.343769	15715.716797
9879.956954	1.234175	0.398353	560.315308
9879.957833	1.714486	0.398353	2067.348633
9879.958695	1.695549	0.398353	3528.912109
9879.959788	1.639717	0.398353	5321.122559
9879.960721	1.591864	0.398353	6806.331543
9879.961602	1.548790	0.398353	8170.815918
9879.962564	1.503929	0.398353	9617.595703
9879.963578	1.457476	0.398353	11095.475586
9879.964458	1.419705	0.398353	12344.815430
9879.965322	1.383018	0.398353	13539.742187
9879.966398	1.101676	0.398353	14725.145508
9879.967331	0.136366	0.398353	14852.375000
9879.968194	0.090571	0.398353	14930.538086
9879.969143	0.090707	0.398353	15016.619141
9879.970171	0.090652	0.398353	15109.809570
9879.971061	0.090670	0.398353	15190.505859
9879.971923	0.090656	0.398353	15268.651367
9879.972962	0.090780	0.398353	15362.971680
9879.973909	0.090667	0.398353	15448.833008
9879.974783	0.090659	0.398353	15528.069336
9879.975700	0.090754	0.398353	15611.291016
9881.000405	1.209243	0.366150	533.276245
9881.001275	1.713245	0.366150	2023.798950
9881.002311	1.688946	0.366150	3773.547363
9881.003354	1.635319	0.366150	5479.184570
9881.004239	1.589308	0.366150	6885.722168
9881.005178	1.543744	0.366150	8335.297852
9881.006251	1.493599	0.366150	9937.929687
9881.007188	1.451092	0.366150	11297.603516
9881.008049	1.413820	0.366150	12514.902344
9881.009085	1.370768	0.366150	13935.017578
9881.010116	0.807957	0.366150	14768.020508
9881.011007	0.098207	0.366150	14855.522461
9881.011972	0.090806	0.366150	14943.150391
9881.013021	0.090721	0.366150	15038.317383
9881.013944	0.090656	0.366150	15121.992187
9881.014803	0.090714	0.366150	15199.916016
9881.015874	0.090725	0.366150	15297.083008
9881.016868	0.090677	0.366150	15387.216797
9881.017757	0.090692	0.366150	15467.841797
9881.018738	0.090754	0.366150	15556.872070
9881.019791	0.090718	0.366150	15652.397461
9881.998905	1.311017	0.406990	705.327026
9881.999946	1.717222	0.406990	2492.954590
9882.000833	1.682739	0.406990	3985.544434
9882.001762	1.633839	0.406990	5503.380859
9882.002838	1.579856	0.406990	7203.305664
9882.003768	1.534420	0.406990	8630.316406
9882.004640	1.492705	0.406990	9931.955078
9882.005688	1.446017	0.406990	11447.380859
9882.006709	1.403251	0.406990	12880.099609
9882.007604	1.366293	0.406990	14102.931641
9882.008583	0.733411	0.406990	14820.940430
9882.009640	0.092618	0.406990	14918.837891
9882.010555	0.090652	0.406990	15001.784180
9882.011419	0.090659	0.406990	15080.113281
9882.012496	0.090776	0.406990	15177.879883
9882.013478	0.090626	0.406990	15266.875000
9882.014373	0.090677	0.406990	15348.031250
9882.015352	0.090773	0.406990	15436.897461
9882.016411	0.090721	0.406990	15532.971680
9882.017312	0.090696	0.406990	15614.688477
9882.018173	0.090725	0.406990	15692.802734
9883.037133	1.216707	0.377990	531.700806
9883.038001	1.712139	0.377990	2017.837158
9883.039089	1.686215	0.377990	3852.438721
9883.040100	1.633345	0.377990	5503.750000
9883.040982	1.588781	0.377990	6905.054687
9883.041986	1.540649	0.377990	8451.867187
9883.043045	1.491010	0.377990	10030.846680
9883.043936	1.450060	0.377990	11322.849609
9883.044814	1.411406	0.377990	12562.064453
9883.045922	1.367333	0.377990	14077.069336
9883.046880	0.783263	0.377990	14827.435547
9883.047737	0.098412	0.377990	14911.774414
9883.048768	0.090729	0.377990	15005.315430
9883.049815	0.090670	0.377990	15100.247070
9883.050688	0.090688	0.377990	15179.417969
9883.051608	0.090732	0.377990	15262.891602
9883.052668	0.090751	0.377990	15359.086914
9883.053612	0.090681	0.377990	15444.689453
9883.054481	0.090699	0.377990	15523.506836
9883.055533	0.090718	0.377990	15618.942383
9883.056550	0.090663	0.377990	15711.146484
9884.041772	1.278951	0.412585	686.796875
9884.042832	1.716573	0.412585	2506.364746
9884.043732	1.681088	0.412585	4019.343750
9884.044593	1.634143	0.412585	5426.340820
9884.045699	1.580138	0.412585	7173.973145
9884.046699	1.531491	0.412585	8705.463867
9884.047583	1.489786	0.412585	10022.435547
9884.048597	1.445343	0.412585	11488.013672
9884.049659	1.400900	0.412585	12975.769531
9884.050546	1.363550	0.412585	14185.238281
9884.051461	0.721967	0.412585	14845.837891
9884.052549	0.092175	0.412585	14946.125000
9884.053490	0.090630	0.412585	15031.408203
9884.054349	0.090688	0.412585	15109.309570
9884.055374	0.090743	0.412585	15202.321289
9884.056412	0.090634	0.412585	15296.398437
9884.057300	0.090681	0.412585	15376.922852
9884.058248	0.090685	0.412585	15462.891602
9884.059314	0.090762	0.412585	15559.643555
9884.060241	0.090670	0.412585	15643.694336
9884.061108	0.090692	0.412585	15722.324219
9885.075971	1.258685	0.390389	625.566589
9885.076888	1.716683	0.390389	2199.765137
9885.077819	1.689071	0.390389	3772.290283
9885.078702	1.642947	0.390389	5223.012207
9885.079654	1.595208	0.390389	6741.649902
9885.080601	1.548582	0.390389	8208.156250
9885.081497	1.505618	0.390389	9557.189453
9885.082403	1.463031	0.390389	10882.695312
9885.083404	1.421085	0.390389	12305.201172
9885.084316	1.382919	0.390389	13566.422852
9885.085202	1.291637	0.390389	14710.813477
9885.086140	0.239432	0.390389	14935.401367
9885.087081	0.090645	0.390389	15020.698242
9885.088009	0.090685	0.390389	15104.853516
9885.088871	0.090743	0.390389	15183.074219
9885.089909	0.090725	0.390389	15277.247070
9885.090792	0.090674	0.390389	15357.312500
9885.091662	0.090670	0.390389	15436.195312
9885.092661	0.090681	0.390389	15526.786133
9885.093583	0.090681	0.390389	15610.394531
9885.094504	0.090667	0.390389	15693.898437
9886.081483	1.215897	0.411413	525.267578
9886.082450	1.712388	0.411413	2181.146484
9886.083397	1.688862	0.411413	3780.499023
9886.084318	1.641086	0.411413	5291.939453
9886.085185	1.595636	0.411413	6675.355957
9886.086229	1.545846	0.411413	8289.218750
9886.087116	1.503160	0.411413	9622.522461
9886.087986	1.462998	0.411413	10895.331055
9886.088939	1.422188	0.411413	12250.675781
9886.089920	1.381392	0.411413	13605.821289
9886.090836	1.239778	0.411413	14741.458008
9886.091719	0.197380	0.411413	14915.745117
9886.092751	0.090663	0.411413	15009.309570
9886.093646	0.090641	0.411413	15090.433594
9886.094522	0.090718	0.411413	15169.902344
9886.095378	0.090791	0.411413	15247.619141
9886.096440	0.090703	0.411413	15343.946289
9886.097320	0.090663	0.411413	15423.729492
9886.098182	0.090685	0.411413	15501.899414
9886.099166	0.090842	0.411413	15591.288086
9886.100093	0.090732	0.411413	15675.397461
9887.115792	1.269309	0.380717	635.923828
9887.116707	1.716724	0.380717	2206.726074
9887.117588	1.691133	0.380717	3696.614014
9887.118577	1.640270	0.380717	5318.840820
9887.119590	1.587480	0.380717	6926.958496
9887.120487	1.543953	0.380717	8311.883789
9887.121351	1.501648	0.380717	9609.307617
9887.122444	1.453835	0.380717	11198.349609
9887.123361	1.414461	0.380717	12495.410156
9887.124244	1.378176	0.380717	13712.339844
9887.125242	1.037845	0.380717	14748.109375
9887.126249	0.110863	0.380717	14859.748047
9887.127130	0.090652	0.380717	14939.612305
9887.127985	0.090659	0.380717	15017.125977
9887.129059	0.090710	0.380717	15114.548828
9887.129981	0.090645	0.380717	15198.123047
9887.130859	0.090685	0.380717	15277.744141
9887.131825	0.090718	0.380717	15365.377930
9887.132843	0.090685	0.380717	15457.695312
9887.133729	0.090659	0.380717	15538.019531
9887.134588	0.090747	0.380717	15615.971680
9888.118277	1.230212	0.370106	615.106140
9888.119316	1.717192	0.370106	2399.269043
9888.120208	1.684772	0.370106	3902.085449
9888.121073	1.638823	0.370106	5319.667480
9888.122126	1.585704	0.370106	6989.414062
9888.123094	1.538734	0.370106	8478.908203
9888.123969	1.497034	0.370106	9788.812500
9888.124905	1.454865	0.370106	11150.565430
9888.125976	1.410073	0.370106	12660.753906
9888.126862	1.372734	0.370106	13876.996094
9888.127727	1.073218	0.370106	14805.329102
9888.128782	0.111317	0.370106	14922.768555
9888.129731	0.090590	0.370106	15008.738281
9888.130595	0.090582	0.370106	15087.000977
9888.131480	0.090773	0.370106	15167.334961
9888.132578	0.090667	0.370106	15266.886719
9888.133475	0.090670	0.370106	15348.217773
9888.134340	0.090718	0.370106	15426.688477
9888.135350	0.090710	0.370106	15518.305664
9888.136322	0.090670	0.370106	15606.437500
9888.137191	0.090630	0.370106	15685.195312
9889.155608	1.274985	0.368265	643.867554
9889.156514	1.716705	0.368265	2199.202637
9889.157388	1.691766	0.368265	3677.806396
9889.158380	1.640284	0.368265	5304.968750
9889.159392	1.587616	0.368265	6911.636230
9889.160287	1.544692	0.368265	8294.135742
9889.161155	1.502212	0.368265	9598.055664
9889.162251	1.454044	0.368265	11191.687500
9889.163179	1.414285	0.368265	12504.143555
9889.164062	1.377660	0.368265	13720.617187
9889.165051	1.044489	0.368265	14753.616211
9889.166053	0.110259	0.368265	14864.095703
9889.166945	0.090608	0.368265	14944.917969
9889.167803	0.090714	0.368265	15022.750977
9889.168889	0.090692	0.368265	15121.242187
9889.169802	0.090703	0.368265	15204.053711
9889.170674	0.090688	0.368265	15283.133789
9889.171661	0.090791	0.368265	15372.744141
9889.172681	0.090674	0.368265	15465.231445
9889.173553	0.090703	0.368265	15544.324219
9889.174417	0.090729	0.368265	15622.713867
9890.153921	1.208280	0.352450	517.143799
9890.154987	1.715468	0.352450	2345.832275
9890.155991	1.680582	0.352450	4033.136719
9890.156880	1.634539	0.352450	5486.241699
9890.157860	1.584712	0.352450	7039.259277
9890.158921	1.533439	0.352450	8666.237305
9890.159827	1.490295	0.352450	10016.445312
9890.160693	1.450027	0.352450	11272.167969
9890.161803	1.404770	0.352450	12831.462891
9890.162778	1.364517	0.352450	14161.866211
9890.163660	0.808953	0.352450	14875.362305
9890.164715	0.094197	0.352450	14974.740234
9890.165743	0.090582	0.352450	15067.858398
9890.166630	0.090601	0.352450	15148.220703
9890.167550	0.090674	0.352450	15231.640625
9890.168617	0.090710	0.352450	15328.428711
9890.169558	0.090623	0.352450	15413.704102
9890.170418	0.090699	0.352450	15491.706055
9890.171457	0.090769	0.352450	15586.014648
9890.172478	0.090659	0.352450	15678.578125
9890.173362	0.090579	0.352450	15758.649414
9891.198508	1.300155	0.371992	679.981079
9891.199450	1.717672	0.371992	2298.028320
9891.200315	1.688855	0.371992	3758.887939
9891.201381	1.634300	0.371992	5501.052246
9891.202411	1.581324	0.371992	7129.816406
9891.203297	1.538551	0.371992	8492.972656
9891.204271	1.493229	0.371992	9947.376953
9891.205326	1.445570	0.371992	11472.453125
9891.206263	1.406177	0.371992	12790.041016
9891.207128	1.369116	0.371992	13974.326172
9891.208183	0.740643	0.371992	14755.705078
9891.209201	0.092703	0.371992	14850.076172
9891.210078	0.090645	0.371992	14929.571289
9891.211060	0.090721	0.371992	15018.660156
9891.212119	0.090707	0.371992	15114.718750
9891.213031	0.090652	0.371992	15197.393555
9891.213898	0.090696	0.371992	15276.026367
9891.214990	0.090765	0.371992	15375.142578
9891.215966	0.090626	0.371992	15463.593750
9891.216848	0.090703	0.371992	15543.593750
9891.217852	0.090732	0.371992	15634.689453
9892.186555	1.192566	0.368165	506.840515
9892.187518	1.710641	0.368165	2154.187500
9892.188572	1.683743	0.368165	3928.852295
9892.189503	1.634887	0.368165	5450.931641
9892.190377	1.589348	0.368165	6840.021973
9892.191465	1.537310	0.368165	8512.615234
9892.192463	1.490109	0.368165	9999.744141
9892.193361	1.450129	0.368165	11301.959961
9892.194353	1.408586	0.368165	12699.277344
9892.195418	1.364575	0.368165	14152.549805
9892.196329	0.761067	0.368165	14845.881836
9892.197189	0.097551	0.368165	14929.776367
9892.198308	0.090780	0.368165	15031.359375
9892.199273	0.090670	0.368165	15118.856445
9892.200144	0.090677	0.368165	15197.836914
9892.201192	0.090806	0.368165	15293.000977
9892.202213	0.090681	0.368165	15385.586914
9892.203090	0.090696	0.368165	15465.126953
9892.203994	0.090747	0.368165	15547.162109
9892.205066	0.090795	0.368165	15644.494141
9892.206009	0.090656	0.368165	15729.982422
9893.242330	1.236321	0.382159	561.289673
9893.243210	1.714039	0.382159	2069.644287
9893.244194	1.690137	0.382159	3732.738770
9893.245271	1.634308	0.382159	5492.888184
9893.246182	1.587411	0.382159	6939.019531
9893.247049	1.543205	0.382159	8276.978516
9893.248159	1.492742	0.382159	9933.921875
9893.249140	1.449023	0.382159	11355.414062
9893.250001	1.412238	0.382159	12571.350586
9893.251086	1.367765	0.382159	14055.375977
9893.252123	0.698291	0.382159	14779.503906
9893.252999	0.094805	0.382159	14862.552734
9893.253917	0.090765	0.382159	14945.875000
9893.255000	0.090736	0.382159	15044.142578
9893.255939	0.090670	0.382159	15129.282227
9893.256799	0.090743	0.382159	15207.321289
9893.257832	0.090806	0.382159	15301.124023
9893.258855	0.090707	0.382159	15393.916992
9893.259724	0.090685	0.382159	15472.721680
9893.260668	0.090784	0.382159	15558.421875
9893.261718	0.090809	0.382159	15653.771484
9894.221344	1.283767	0.377885	654.721252
9894.222351	1.717244	0.377885	2383.985596
9894.223234	1.685673	0.377885	3872.434570
9894.224248	1.633422	0.377885	5528.724121
9894.225305	1.580175	0.377885	7198.968750
9894.226182	1.536405	0.377885	8546.395508
9894.227078	1.492430	0.377885	9883.613281
9894.228181	1.444490	0.377885	11476.885742
9894.229140	1.404445	0.377885	12823.748047
9894.230008	1.368322	0.377885	14011.451172
9894.231045	0.728331	0.377885	14766.730469
9894.232085	0.092358	0.377885	14862.783203
9894.232974	0.090762	0.377885	14943.470703
9894.233927	0.090754	0.377885	15029.959961
9894.234974	0.090791	0.377885	15125.018555
9894.235913	0.090696	0.377885	15210.181641
9894.236772	0.090714	0.377885	15288.105469
9894.237847	0.090817	0.377885	15385.733398
9894.238852	0.090696	0.377885	15476.882812
9894.239735	0.090696	0.377885	15556.966797
9894.240698	0.090831	0.377885	15644.437500
9895.286204	1.191584	0.364942	506.423401
9895.287151	1.710476	0.364942	2126.244385
9895.288211	1.684288	0.364942	3911.590088
9895.289142	1.635465	0.364942	5434.208008
9895.290013	1.590048	0.364942	6819.139648
9895.291095	1.538320	0.364942	8483.602539
9895.292101	1.490610	0.364942	9983.156250
9895.292999	1.450606	0.364942	11285.799805
9895.293984	1.409476	0.364942	12674.133789
9895.295052	1.365315	0.364942	14132.290039
9895.295978	0.761909	0.364942	14837.818359
9895.296841	0.097310	0.364942	14921.796875
9895.297942	0.090802	0.364942	15021.769531
9895.298910	0.090648	0.364942	15109.516602
9895.299788	0.090677	0.364942	15189.131836
9895.300807	0.090710	0.364942	15281.565430
9895.301851	0.090667	0.364942	15376.221680
9895.302727	0.090637	0.364942	15455.620117
9895.303604	0.090762	0.364942	15535.217773
9895.304687	0.090828	0.364942	15633.583984
9895.305643	0.090641	0.364942	15720.236328
9896.257040	1.246762	0.384137	635.848389
9896.258104	1.715724	0.384137	2461.378418
9896.259034	1.680634	0.384137	4024.367676
9896.259899	1.634601	0.384137	5438.297363
9896.260977	1.580618	0.384137	7142.203125
9896.261986	1.532043	0.384137	8688.035156
9896.262861	1.490317	0.384137	9992.062500
9896.263846	1.447244	0.384137	11417.597656
9896.264912	1.402357	0.384137	12912.510742
9896.265812	1.364271	0.384137	14140.354492
9896.266683	0.795623	0.384137	14833.341797
9896.267768	0.093241	0.384137	14934.507812
9896.268763	0.090641	0.384137	15024.695312
9896.269655	0.090656	0.384137	15105.559570
9896.270645	0.090868	0.384137	15195.518555
9896.271696	0.090806	0.384137	15290.955078
9896.272590	0.090707	0.384137	15372.046875
9896.273452	0.090817	0.384137	15450.331055
9896.274558	0.090879	0.384137	15550.842773
9896.275521	0.090725	0.384137	15638.210937
9896.276390	0.090729	0.384137	15717.054687
9897.323965	1.189589	0.343161	504.385590
9897.325001	1.715068	0.343161	2281.196289
9897.325893	1.688709	0.343161	3787.524414
9897.326802	1.641042	0.343161	5279.231934
9897.327681	1.595471	0.343161	6681.651367
9897.328655	1.547146	0.343161	8188.571289
9897.329589	1.503684	0.343161	9593.011719
9897.330475	1.463148	0.343161	10889.361328
9897.331471	1.421228	0.343161	12304.904297
9897.332407	1.381256	0.343161	13597.759766
9897.333328	1.245908	0.343161	14745.241211
9897.334199	0.203657	0.343161	14922.626953
9897.335247	0.090608	0.343161	15017.583984
9897.336124	0.090656	0.343161	15097.088867
9897.336987	0.090696	0.343161	15175.359375
9897.337973	0.090765	0.343161	15264.854492
9897.338896	0.090685	0.343161	15348.556641
9897.339811	0.090725	0.343161	15431.570312
9897.340690	0.090732	0.343161	15511.324219
9897.341712	0.090754	0.343161	15604.075195
9897.342612	0.090714	0.343161	15685.717773
9898.296759	1.185919	0.375851	498.086060
9898.297703	1.710447	0.375851	2112.747803
9898.298682	1.689009	0.375851	3766.287598
9898.299603	1.641068	0.375851	5277.711426
9898.300474	1.596167	0.375851	6667.972656
9898.301522	1.546271	0.375851	8288.464844
9898.302407	1.502856	0.375851	9618.493164
9898.303274	1.462866	0.375851	10886.797852
9898.304148	1.423513	0.375851	12130.948242
9898.305193	1.381641	0.375851	13574.762695
9898.306096	1.266024	0.375851	14717.982422
9898.306979	0.222524	0.375851	14914.471680
9898.307972	0.090648	0.375851	15004.485352
9898.308915	0.090707	0.375851	15090.021484
9898.309831	0.090703	0.375851	15173.105469
9898.310691	0.090784	0.375851	15251.179687
9898.311716	0.090699	0.375851	15344.146484
9898.312596	0.090736	0.375851	15423.994141
9898.313468	0.090751	0.375851	15503.128906
9898.314432	0.090765	0.375851	15590.626953
9898.315389	0.090773	0.375851	15677.496094
9899.359680	1.192020	0.340804	506.608612
9899.360671	1.711293	0.340804	2202.499756
9899.361688	1.684197	0.340804	3915.327637
9899.362573	1.637754	0.340804	5364.739746
9899.363433	1.592585	0.340804	6734.363281
9899.364492	1.541649	0.340804	8366.969727
9899.365430	1.497297	0.340804	9771.434570
9899.366310	1.457703	0.340804	11054.212891
9899.367275	1.417108	0.340804	12421.722656
9899.368295	1.374276	0.340804	13823.484375
9899.369199	1.085815	0.340804	14805.061523
9899.370065	0.136227	0.340804	14923.034180
9899.371147	0.090710	0.340804	15021.182617
9899.372081	0.090663	0.340804	15105.861328
9899.372955	0.090707	0.340804	15185.138672
9899.373919	0.090718	0.340804	15272.590820
9899.374937	0.090699	0.340804	15364.922852
9899.375821	0.090667	0.340804	15445.072266
9899.376679	0.090732	0.340804	15522.920898
9899.377739	0.090791	0.340804	15619.159180
9899.378681	0.090707	0.340804	15704.604492
9900.337672	1.261414	0.367883	629.445374
9900.338599	1.716654	0.367883	2220.783691
9900.339462	1.690536	0.367883	3679.716309
9900.340542	1.635040	0.367883	5445.559570
9900.341556	1.583818	0.367883	7051.551270
9900.342448	1.540111	0.367883	8425.330078
9900.343418	1.494723	0.367883	9875.210937
9900.344471	1.447562	0.367883	11399.494141
9900.345390	1.408506	0.367883	12693.911133
9900.346257	1.371332	0.367883	13882.855469
9900.347351	0.782373	0.367883	14738.771484
9900.348340	0.093900	0.367883	14831.638672
9900.349216	0.090619	0.367883	14911.020508
9900.350214	0.090791	0.367883	15001.629883
9900.351274	0.090747	0.367883	15097.821289
9900.352159	0.090703	0.367883	15178.093750
9900.353015	0.090758	0.367883	15255.782227
9900.354115	0.090780	0.367883	15355.640625
9900.355053	0.090685	0.367883	15440.703125
9900.355929	0.090707	0.367883	15520.162109
9900.356917	0.090831	0.367883	15609.903320
9901.395411	1.228777	0.339233	540.661804
9901.396276	1.711685	0.339233	2021.269043
9901.397378	1.685530	0.339233	3878.722656
9901.398335	1.635304	0.339233	5443.708496
9901.399195	1.591172	0.339233	6812.116211
9901.400280	1.538675	0.339233	8481.579102
9901.401329	1.489314	0.339233	10043.869141
9901.402213	1.449360	0.339233	11325.103516
9901.403164	1.409835	0.339233	12665.856445
9901.404224	1.365681	0.339233	14113.478516
9901.405167	0.759272	0.339233	14829.472656
9901.406025	0.097397	0.339233	14913.040039
9901.407069	0.090831	0.339233	15007.868164
9901.408083	0.090747	0.339233	15099.885742
9901.408973	0.090645	0.339233	15180.559570
9901.409936	0.090787	0.339233	15267.988281
9901.410983	0.090824	0.339233	15363.081055
9901.411903	0.090648	0.339233	15446.477539
9901.412775	0.090747	0.339233	15525.609375
9901.413854	0.090791	0.339233	15623.573242
9901.414849	0.090648	0.339233	15713.768555
9902.379449	1.203801	0.347229	508.004150
9902.380537	1.715230	0.347229	2374.173828
9902.381517	1.680406	0.347229	4020.972168
9902.382401	1.634806	0.347229	5466.140625
9902.383401	1.584137	0.347229	7050.277344
9902.384456	1.533776	0.347229	8668.410156
9902.385343	1.491105	0.347229	9991.019531
9902.386226	1.450243	0.347229	11271.583984
9902.387324	1.405184	0.347229	12814.476562
9902.388280	1.365897	0.347229	14120.274414
9902.389156	0.856143	0.347229	14870.254883
9902.390188	0.096068	0.347229	14969.397461
9902.391229	0.090736	0.347229	15063.853516
9902.392122	0.090688	0.347229	15144.837891
9902.393053	0.090842	0.347229	15229.412109
9902.394115	0.090787	0.347229	15325.828125
9902.395049	0.090754	0.347229	15410.592773
9902.395908	0.090725	0.347229	15488.525391
9902.396965	0.090861	0.347229	15584.565430
9902.397981	0.090630	0.347229	15676.645508
9902.398866	0.090798	0.347229	15757.001953
9903.429052	1.188882	0.349304	506.463684
9903.430098	1.714735	0.349304	2300.076660
9903.431131	1.681051	0.349304	4036.602539
9903.432028	1.633330	0.349304	5501.699707
9903.432960	1.585946	0.349304	6979.801758
9903.434027	1.534428	0.349304	8617.036133
9903.434964	1.490259	0.349304	10013.408203
9903.435828	1.450942	0.349304	11267.022461
9903.436895	1.406627	0.349304	12767.893555
9903.437919	1.364191	0.349304	14164.825195
9903.438800	0.796732	0.349304	14866.746094
9903.439772	0.098708	0.349304	14962.690430
9903.440811	0.090688	0.349304	15056.916016
9903.441727	0.090696	0.349304	15139.993164
9903.442584	0.090732	0.349304	15217.750977
9903.443636	0.090857	0.349304	15313.332031
9903.444653	0.090736	0.349304	15405.610352
9903.445545	0.090656	0.349304	15486.474609
9903.446521	0.090828	0.349304	15575.122070
9903.447571	0.090699	0.349304	15670.356445
9903.448475	0.090681	0.349304	15752.332031
9904.421334	1.223441	0.354714	543.207886
9904.422207	1.713442	0.354714	2039.043091
9904.423208	1.689258	0.354714	3729.990234
9904.424270	1.634604	0.354714	5465.940430
9904.425162	1.588579	0.354714	6882.953125
9904.426055	1.543513	0.354714	8261.310547
9904.427161	1.492892	0.354714	9912.449219
9904.428105	1.450653	0.354714	11281.865234
9904.428981	1.413406	0.354714	12520.008789
9904.430012	1.370548	0.354714	13933.043945
9904.431055	0.794586	0.354714	14761.796875
9904.431950	0.097170	0.354714	14848.764648
9904.432890	0.090762	0.354714	14934.081055
9904.433951	0.090817	0.354714	15030.437500
9904.434889	0.090736	0.354714	15115.547852
9904.435751	0.090725	0.354714	15193.752930
9904.436819	0.090802	0.354714	15290.729492
9904.437806	0.090714	0.354714	15380.264648
9904.438690	0.090718	0.354714	15460.458984
9904.439655	0.090787	0.354714	15548.068359
9904.440698	0.090784	0.354714	15642.755859
9905.465782	1.196869	0.361518	502.684937
9905.466867	1.715548	0.361518	2364.054687
9905.467870	1.679773	0.361518	4048.866699
9905.468767	1.632883	0.361518	5513.562988
9905.469782	1.582185	0.361518	7119.480957
9905.470833	1.531534	0.361518	8729.124023
9905.471730	1.488490	0.361518	10064.299805
9905.472629	1.447778	0.361518	11365.852539
9905.473716	1.402852	0.361518	12890.751953
9905.474673	1.363385	0.361518	14195.511719
9905.475538	0.792718	0.361518	14881.212891
9905.476594	0.094189	0.361518	14980.676758
9905.477622	0.090663	0.361518	15073.877930
9905.478503	0.090641	0.361518	15153.732422
9905.479437	0.090751	0.361518	15238.493164
9905.480495	0.090751	0.361518	15334.507812
9905.481428	0.090685	0.361518	15419.117187
9905.482284	0.090762	0.361518	15496.809570
9905.483319	0.090762	0.361518	15590.748047
9905.484344	0.090707	0.361518	15683.722656
9905.485231	0.090692	0.361518	15764.166992
9906.460205	1.297727	0.371770	680.009033
9906.461165	1.717416	0.371770	2328.728027
9906.462029	1.687841	0.371770	3787.022461
9906.463090	1.632784	0.371770	5519.406738
9906.464135	1.580442	0.371770	7170.968750
9906.465018	1.537101	0.371770	8528.228516
9906.465939	1.492771	0.371770	9903.070312
9906.467042	1.444717	0.371770	11496.592773
9906.467966	1.405144	0.371770	12794.946289
9906.468840	1.368453	0.371770	13990.974609
9906.469873	0.749121	0.371770	14764.816406
9906.470885	0.093047	0.371770	14858.979492
9906.471776	0.090656	0.371770	14939.753906
9906.472739	0.090725	0.371770	15027.122070
9906.473799	0.090802	0.371770	15123.372070
9906.474728	0.090692	0.371770	15207.625000
9906.475597	0.090590	0.371770	15286.347656
9906.476665	0.090714	0.371770	15383.230469
9906.477665	0.090688	0.371770	15473.918945
9906.478551	0.090681	0.371770	15554.262695
9906.479522	0.090809	0.371770	15642.438477
9907.500599	1.306157	0.374832	704.018738
9907.501492	1.716819	0.374832	2237.137939
9907.502370	1.689979	0.374832	3720.939941
9907.503250	1.641921	0.374832	5165.831055
9907.504315	1.589227	0.374832	6858.358398
9907.505199	1.545974	0.374832	8225.000000
9907.506070	1.505021	0.374832	9535.873047
9907.507091	1.459508	0.374832	11026.031250
9907.507993	1.419500	0.374832	12306.419922
9907.508913	1.381512	0.374832	13577.411133
9907.509797	1.230817	0.374832	14665.453125
9907.510836	0.159130	0.374832	14830.789062
9907.511729	0.090597	0.374832	14911.692383
9907.512602	0.090703	0.374832	14990.875977
9907.513559	0.090780	0.374832	15077.752930
9907.514522	0.090637	0.374832	15165.036133
9907.515446	0.090619	0.374832	15248.767578
9907.516314	0.090736	0.374832	15327.526367
9907.517350	0.090674	0.374832	15421.464844
9907.518226	0.090688	0.374832	15500.908203
9907.519090	0.090710	0.374832	15579.282227
9908.499961	1.225192	0.382659	599.118774
9908.500961	1.716936	0.382659	2316.054932
9908.501836	1.687383	0.382659	3792.514893
9908.502709	1.639695	0.382659	5223.968750
9908.503813	1.586400	0.382659	6975.354492
9908.504701	1.542594	0.382659	8345.177734
9908.505564	1.501428	0.382659	9640.910156
9908.506659	1.451448	0.382659	11230.245117
9908.507641	1.410344	0.382659	12615.203125
9908.508519	1.373591	0.382659	13821.216797
9908.509406	1.002678	0.382659	14710.592773
9908.510526	0.103107	0.382659	14826.072266
9908.511421	0.090670	0.382659	14907.221680
9908.512284	0.090721	0.382659	14985.514648
9908.513319	0.090835	0.382659	15079.529297
9908.514291	0.090674	0.382659	15167.664062
9908.515167	0.090721	0.382659	15247.135742
9908.516029	0.090692	0.382659	15325.312500
9908.517134	0.090685	0.382659	15425.519531
9908.518024	0.090696	0.382659	15506.239258
9908.518889	0.090637	0.382659	15584.640625
9909.539258	1.218160	0.371802	517.718140
9909.540378	1.716379	0.371802	2440.062988
9909.541282	1.682864	0.371802	3961.372070
9909.542151	1.637443	0.371802	5384.309570
9909.543238	1.582302	0.371802	7104.272461
9909.544216	1.535072	0.371802	8605.573242
9909.545098	1.493163	0.371802	9922.542969
9909.545998	1.451916	0.371802	11229.267578
9909.547090	1.407546	0.371802	12766.308594
9909.547977	1.370043	0.371802	13981.536133
9909.548851	1.003608	0.371802	14858.689453
9909.549881	0.106989	0.371802	14968.887695
9909.550841	0.090685	0.371802	15055.945312
9909.551712	0.090681	0.371802	15134.928711
9909.552568	0.090674	0.371802	15212.545898
9909.553659	0.090677	0.371802	15311.474609
9909.554565	0.090681	0.371802	15393.631836
9909.555443	0.090688	0.371802	15473.255859
9909.556432	0.090820	0.371802	15563.077148
9909.557429	0.090732	0.371802	15653.537109
9909.558320	0.090721	0.371802	15734.370117
9910.539754	1.228140	0.394284	573.541199
9910.540741	1.717097	0.394284	2268.316162
9910.541681	1.685566	0.394284	3852.748535
9910.542563	1.639596	0.394284	5298.872070
9910.543596	1.588374	0.394284	6939.662598
9910.544497	1.543323	0.394284	8330.196289
9910.545373	1.501480	0.394284	9645.492187
9910.546237	1.459698	0.394284	10906.671875
9910.547297	1.416372	0.394284	12408.026367
9910.548196	1.379319	0.394284	13648.034180
9910.549075	1.248296	0.394284	14745.286133
9910.550067	0.184427	0.394284	14928.238281
9910.551003	0.090688	0.394284	15013.123047
9910.551923	0.090688	0.394284	15096.556641
9910.552788	0.090765	0.394284	15175.068359
9910.553815	0.090751	0.394284	15268.269531
9910.554693	0.090667	0.394284	15347.875000
9910.555564	0.090762	0.394284	15426.928711
9910.556538	0.090817	0.394284	15515.383789
9910.557504	0.090729	0.394284	15603.027344
9910.558418	0.090714	0.394284	15685.940430
9911.578048	1.199594	0.378562	515.825195
9911.578921	1.711956	0.378562	2010.362427
9911.579899	1.691825	0.378562	3664.967285
9911.580846	1.641669	0.378562	5219.627441
9911.581780	1.594098	0.378562	6708.514648
9911.582650	1.551108	0.378562	8057.979004
9911.583682	1.502593	0.378562	9608.654297
9911.584564	1.462368	0.378562	10898.462891
9911.585444	1.424652	0.378562	12152.156250
9911.586406	1.385024	0.378562	13484.549805
9911.587384	1.256093	0.378562	14713.007812
9911.588263	0.210597	0.378562	14898.122070
9911.589191	0.090641	0.378562	14982.236328
9911.590257	0.090692	0.378562	15078.914062
9911.591155	0.090652	0.378562	15160.319336
9911.592020	0.090648	0.378562	15238.730469
9911.593026	0.090714	0.378562	15329.989258
9911.593997	0.090685	0.378562	15418.043945
9911.594870	0.090674	0.378562	15497.202148
9911.595745	0.090751	0.378562	15576.609375
9911.596834	0.090637	0.378562	15675.313477
9912.576525	1.268467	0.398373	638.038818
9912.577446	1.716343	0.398373	2218.790527
9912.578326	1.690166	0.398373	3706.136719
9912.579292	1.640548	0.398373	5290.906250
9912.580311	1.588037	0.398373	6909.116211
9912.581197	1.544626	0.398373	8277.655273
9912.582061	1.502922	0.398373	9576.179687
9912.583139	1.455377	0.398373	11145.076172
9912.584066	1.415226	0.398373	12456.990234
9912.584936	1.379121	0.398373	13656.825195
9912.585900	1.101848	0.398373	14719.006836
9912.586929	0.121421	0.398373	14843.949219
9912.587830	0.090597	0.398373	14925.577148
9912.588691	0.090729	0.398373	15003.694336
9912.589751	0.090703	0.398373	15099.839844
9912.590687	0.090736	0.398373	15184.768555
9912.591564	0.090718	0.398373	15264.328125
9912.592511	0.090758	0.398373	15350.276367
9912.593551	0.090703	0.398373	15444.607422
9912.594444	0.090751	0.398373	15525.647461
9912.595303	0.090714	0.398373	15603.571289
9913.615898	1.276168	0.382848	647.017273
9913.616924	1.716742	0.382848	2408.394531
9913.617798	1.684475	0.382848	3880.625732
9913.618766	1.634421	0.382848	5462.745605
9913.619828	1.580087	0.382848	7140.797852
9913.620752	1.535464	0.382848	8559.566406
9913.621624	1.492698	0.382848	9861.199219
9913.622716	1.445332	0.382848	11439.501953
9913.623713	1.403254	0.382848	12838.546875
9913.624608	1.366450	0.382848	14061.519531
9913.625596	0.734517	0.382848	14787.221680
9913.626663	0.092582	0.382848	14886.006836
9913.627550	0.090732	0.382848	14966.486328
9913.628421	0.090740	0.382848	15045.520508
9913.629520	0.090850	0.382848	15145.364258
9913.630482	0.090729	0.382848	15232.645508
9913.631345	0.090718	0.382848	15310.934570
9913.632409	0.090795	0.382848	15407.540039
9913.633439	0.090758	0.382848	15501.020508
9913.634327	0.090762	0.382848	15581.617187
9913.635248	0.090747	0.382848	15665.195312
9914.614201	1.186245	0.386288	499.409180
9914.615142	1.710223	0.386288	2108.729492
9914.616201	1.684098	0.386288	3892.189209
9914.617151	1.634535	0.386288	5444.997559
9914.618023	1.589561	0.386288	6831.094238
9914.619088	1.538437	0.386288	8469.530273
9914.620108	1.490127	0.386288	9989.459961
9914.621002	1.450243	0.386288	11285.976562
9914.621975	1.409670	0.386288	12657.585937
9914.623036	1.365707	0.386288	14106.600586
9914.623956	0.790924	0.386288	14834.250977
9914.624816	0.098936	0.386288	14919.335937
9914.625910	0.090846	0.386288	15018.721680
9914.626903	0.090688	0.386288	15108.775391
9914.627780	0.090641	0.386288	15188.267578
9914.628773	0.090846	0.386288	15278.477539
9914.629815	0.090736	0.386288	15373.024414
9914.630702	0.090667	0.386288	15453.445312
9914.631568	0.090765	0.386288	15532.047852
9914.632677	0.090751	0.386288	15632.690430
9914.633658	0.090634	0.386288	15721.601562
9915.655716	1.287682	0.372012	663.156128
9915.656735	1.716793	0.372012	2412.568359
9915.657615	1.684673	0.372012	3895.080566
9915.658615	1.633282	0.372012	5528.363281
9915.659665	1.579424	0.372012	7186.758301
9915.660560	1.535153	0.372012	8560.719727
9915.661435	1.492566	0.372012	9866.714844
9915.662536	1.444918	0.372012	11457.570312
9915.663514	1.403591	0.372012	12830.282227
9915.664400	1.367300	0.372012	14041.709961
9915.665407	0.737878	0.372012	14784.753906
9915.666470	0.092552	0.372012	14883.136719
9915.667353	0.090699	0.372012	14963.224609
9915.668225	0.090710	0.372012	15042.324219
9915.669340	0.090784	0.372012	15143.547852
9915.670296	0.090656	0.372012	15230.214844
9915.671161	0.090688	0.372012	15308.660156
9915.672191	0.090780	0.372012	15402.164062
9915.673225	0.090692	0.372012	15495.939453
9915.674116	0.090648	0.372012	15576.707031
9915.675040	0.090813	0.372012	15660.618164
9916.649948	1.237994	0.369913	563.287415
9916.650829	1.713823	0.369913	2073.165771
9916.651808	1.689913	0.369913	3727.590820
9916.652871	1.634337	0.369913	5464.891113
9916.653794	1.587129	0.369913	6929.811035
9916.654663	1.543066	0.369913	8270.735352
9916.655767	1.492511	0.369913	9918.467773
9916.656748	1.448536	0.369913	11339.482422
9916.657628	1.411589	0.369913	12581.680664
9916.658642	1.369838	0.369913	13970.696289
9916.659676	0.788174	0.369913	14785.667969
9916.660561	0.097295	0.369913	14871.774414
9916.661424	0.090681	0.369913	14950.032227
9916.662526	0.090776	0.369913	15050.067383
9916.663481	0.090710	0.369913	15136.696289
9916.664338	0.090740	0.369913	15214.459961
9916.665401	0.090875	0.369913	15311.060547
9916.666437	0.090696	0.369913	15405.021484
9916.667318	0.090732	0.369913	15484.957031
9916.668234	0.090773	0.369913	15568.104492
9916.669299	0.090806	0.369913	15664.812500
9917.694396	1.192383	0.365482	503.185547
9917.695449	1.714600	0.365482	2308.658936
9917.696461	1.681088	0.365482	4009.919434
9917.697341	1.634729	0.365482	5448.480957
9917.698317	1.586221	0.365482	6996.632324
9917.699365	1.534940	0.365482	8605.250000
9917.700284	1.491116	0.365482	9975.584961
9917.701147	1.451382	0.365482	11228.127930
9917.702200	1.407242	0.365482	12709.954102
9917.703209	1.365498	0.365482	14087.742187
9917.704108	0.848536	0.365482	14850.576172
9917.705079	0.100620	0.365482	14948.278320
9917.706126	0.090721	0.365482	15043.263672
9917.707037	0.090747	0.365482	15125.934570
9917.707896	0.090776	0.365482	15203.911133
9917.708956	0.090861	0.365482	15300.223633
9917.709942	0.090743	0.365482	15389.696289
9917.710836	0.090721	0.365482	15470.800781
9917.711818	0.090820	0.365482	15559.986328
9917.712874	0.090769	0.365482	15655.838867
9917.713778	0.090721	0.365482	15737.850586
9918.683582	1.196613	0.356982	510.953583
9918.684453	1.710568	0.356982	2000.858032
9918.685548	1.685295	0.356982	3846.256592
9918.686553	1.632539	0.356982	5486.958496
9918.687451	1.587173	0.356982	6912.239746
9918.688432	1.539888	0.356982	8422.869141
9918.689498	1.490160	0.356982	10011.379883
9918.690391	1.449470	0.356982	11305.756836
9918.691285	1.410524	0.356982	12566.764648
9918.692395	1.365626	0.356982	14082.609375
9918.693364	0.750454	0.356982	14809.799805
9918.694226	0.096976	0.356982	14893.393555
9918.695261	0.090736	0.356982	14987.305664
9918.696288	0.090736	0.356982	15080.491211
9918.697169	0.090645	0.356982	15160.348633
9918.698105	0.090780	0.356982	15245.318359
9918.699157	0.090798	0.356982	15340.837891
9918.700088	0.090619	0.356982	15425.204102
9918.700947	0.090732	0.356982	15503.143555
9918.701989	0.090784	0.356982	15597.740234
9918.703007	0.090762	0.356982	15690.135742
9919.735323	1.288711	0.343951	657.242615
9919.736329	1.716782	0.343951	2384.325439
9919.737219	1.684570	0.343951	3883.593018
9919.738210	1.633444	0.343951	5502.335449
9919.739265	1.579786	0.343951	7169.009766
9919.740175	1.535431	0.343951	8566.251953
9919.741039	1.492683	0.343951	9855.929687
9919.742139	1.445475	0.343951	11445.952148
9919.743143	1.403221	0.343951	12854.786133
9919.744028	1.366454	0.343951	14064.097656
9919.745049	0.719586	0.343951	14798.794922
9919.746101	0.092421	0.343951	14896.021484
9919.746966	0.090663	0.343951	14974.445312
9919.747875	0.090688	0.343951	15056.880859
9919.748962	0.090828	0.343951	15155.610352
9919.749915	0.090656	0.343951	15242.004883
9919.750781	0.090652	0.343951	15320.509766
9919.751801	0.090802	0.343951	15413.127930
9919.752833	0.090652	0.343951	15506.680664
9919.753724	0.090663	0.343951	15587.460937
9919.754647	0.090721	0.343951	15671.197266
9920.717239	1.183660	0.343419	499.504395
9920.718250	1.712263	0.343419	2230.602539
9920.719310	1.680930	0.343419	4012.388672
9920.720206	1.633495	0.343419	5476.000000
9920.721106	1.585774	0.343419	6903.196289
9920.722209	1.533658	0.343419	8594.821289
9920.723169	1.488739	0.343419	10024.010742
9920.724043	1.449474	0.343419	11290.850586
9920.725094	1.405664	0.343419	12768.203125
9920.726118	1.363341	0.343419	14164.264648
9920.727022	0.752908	0.343419	14844.893555
9920.727974	0.096936	0.343419	14937.176758
9920.729020	0.090696	0.343419	15032.044922
9920.729954	0.090601	0.343419	15116.666016
9920.730817	0.090703	0.343419	15194.942383
9920.731880	0.090710	0.343419	15291.367187
9920.732878	0.090593	0.343419	15381.779297
9920.733759	0.090575	0.343419	15461.576172
9920.734751	0.090780	0.343419	15551.629883
9920.735804	0.090718	0.343419	15647.155273
9920.736706	0.090648	0.343419	15728.919922
9921.776099	1.247091	0.319599	579.897339
9921.776973	1.713845	0.319599	2077.797852
9921.777942	1.690342	0.319599	3715.739258
9921.778987	1.635718	0.319599	5425.064453
9921.779914	1.587920	0.319599	6897.066406
9921.780782	1.544333	0.319599	8237.547852
9921.781865	1.494628	0.319599	9856.229492
9921.782855	1.449858	0.319599	11291.589844
9921.783743	1.412611	0.319599	12545.988281
9921.784743	1.371793	0.319599	13917.781250
9921.785810	0.798662	0.319599	14769.954102
9921.786696	0.097632	0.319599	14856.456055
9921.787554	0.090696	0.319599	14934.273437
9921.788641	0.090725	0.319599	15032.891602
9921.789593	0.090626	0.319599	15119.167969
9921.790466	0.090667	0.319599	15198.320312
9921.791570	0.090721	0.319599	15298.476562
9921.792633	0.090634	0.319599	15394.820312
9921.793510	0.090579	0.319599	15474.257812
9921.794433	0.090626	0.319599	15557.906250
9921.795499	0.090648	0.319599	15654.537109
9922.753974	1.196338	0.337288	506.050934
9922.755055	1.714427	0.337288	2359.347168
9922.756067	1.679429	0.337288	4058.928955
9922.756943	1.633052	0.337288	5489.482422
9922.757939	1.583086	0.337288	7066.235840
9922.759013	1.531692	0.337288	8711.273437
9922.759909	1.488241	0.337288	10044.737305
9922.760785	1.447365	0.337288	11312.628906
9922.761893	1.402478	0.337288	12866.574219
9922.762872	1.362528	0.337288	14200.489258
9922.763747	0.765970	0.337288	14870.713867
9922.764771	0.094091	0.337288	14967.062500
9922.765799	0.090725	0.337288	15060.328125
9922.766692	0.090615	0.337288	15141.247070
9922.767583	0.090740	0.337288	15222.095703
9922.768664	0.090688	0.337288	15320.129883
9922.769625	0.090593	0.337288	15407.190430
9922.770485	0.090648	0.337288	15485.147461
9922.771524	0.090699	0.337288	15579.383789
9922.772541	0.090641	0.337288	15671.565430
9922.773421	0.090623	0.337288	15751.313477
9923.814932	1.278889	0.313702	640.723450
9923.815934	1.716793	0.313702	2360.950195
9923.816825	1.684944	0.313702	3862.235352
9923.817797	1.634729	0.313702	5451.191895
9923.818860	1.580738	0.313702	7131.516602
9923.819776	1.536010	0.313702	8538.500977
9923.820645	1.493090	0.313702	9835.996094
9923.821754	1.445486	0.313702	11439.040039
9923.822721	1.404499	0.313702	12797.191406
9923.823610	1.367933	0.313702	14013.284180
9923.824625	0.751505	0.313702	14776.061523
9923.825681	0.092677	0.313702	14873.928711
9923.826568	0.090608	0.313702	14954.297852
9923.827453	0.090681	0.313702	15034.550781
9923.828535	0.090652	0.313702	15132.635742
9923.829487	0.090652	0.313702	15218.936523
9923.830347	0.090612	0.313702	15296.862305
9923.831379	0.090824	0.313702	15390.592773
9923.832411	0.090615	0.313702	15484.107422
9923.833290	0.090751	0.313702	15563.876953
9923.834223	0.090630	0.313702	15648.434570
9924.792788	1.217175	0.329751	536.774292
9924.793655	1.711805	0.329751	2020.909668
9924.794709	1.686870	0.329751	3798.870605
9924.795740	1.633517	0.329751	5483.026367
9924.796623	1.588143	0.329751	6885.356934
9924.797592	1.541722	0.329751	8379.286133
9924.798654	1.491251	0.329751	9962.995117
9924.799571	1.449591	0.329751	11292.270508
9924.800445	1.412117	0.329751	12526.460937
9924.801483	1.369372	0.329751	13947.869141
9924.802499	0.807180	0.329751	14767.963867
9924.803386	0.098225	0.329751	14855.089844
9924.804365	0.090685	0.329751	14943.870117
9924.805407	0.090667	0.329751	15038.344727
9924.806322	0.090612	0.329751	15121.253906
9924.807183	0.090623	0.329751	15199.280273
9924.808296	0.090685	0.329751	15300.212891
9924.809265	0.090637	0.329751	15388.040039
9924.810145	0.090634	0.329751	15467.797852
9924.811150	0.090677	0.329751	15558.928711
9924.812196	0.090765	0.329751	15653.869141
9925.852619	1.204178	0.313782	523.817627
9925.853494	1.712183	0.313782	2021.977417
9925.854522	1.687610	0.313782	3756.840332
9925.855563	1.633715	0.313782	5457.537109
9925.856460	1.588063	0.313782	6882.029297
9925.857411	1.542140	0.313782	8348.604492
9925.858474	1.491511	0.313782	9934.081055
9925.859410	1.449727	0.313782	11291.025391
9925.860281	1.412197	0.313782	12521.048828
9925.861352	1.368204	0.313782	13986.395508
9925.862370	0.768256	0.313782	14768.479492
9925.863264	0.096152	0.313782	14854.439453
9925.864251	0.090681	0.313782	14943.941406
9925.865314	0.090652	0.313782	15040.304687
9925.866216	0.090630	0.313782	15122.052734
9925.867080	0.090674	0.313782	15200.394531
9925.868173	0.090758	0.313782	15299.592773
9925.869164	0.090659	0.313782	15389.435547
9925.870042	0.090608	0.313782	15468.989258
9925.871039	0.090681	0.313782	15559.398437
9925.872070	0.090630	0.313782	15652.837891
9926.833595	1.202139	0.337743	512.111084
9926.834670	1.715028	0.337743	2355.766113
9926.835660	1.680110	0.337743	4019.074707
9926.836559	1.633667	0.337743	5487.741211
9926.837574	1.582745	0.337743	7094.227539
9926.838615	1.532179	0.337743	8689.225586
9926.839512	1.489142	0.337743	10024.986328
9926.840377	1.448954	0.337743	11278.331055
9926.841489	1.404053	0.337743	12839.637695
9926.842449	1.364334	0.337743	14149.397461
9926.843319	0.831193	0.337743	14872.535156
9926.844389	0.094834	0.337743	14974.007812
9926.845419	0.090586	0.337743	15067.311523
9926.846289	0.090656	0.337743	15146.181641
9926.847222	0.090568	0.337743	15230.681641
9926.848284	0.090736	0.337743	15327.042969
9926.849220	0.090615	0.337743	15411.858398
9926.850090	0.090670	0.337743	15490.741211
9926.851108	0.090725	0.337743	15583.099609
9926.852145	0.090652	0.337743	15677.105469
9926.853030	0.090674	0.337743	15757.351562
9927.887325	1.223423	0.330339	551.763733
9927.888189	1.711977	0.330339	2030.912354
9927.889154	1.690481	0.330339	3662.226562
9927.890081	1.642445	0.330339	5184.773437
9927.890967	1.596592	0.330339	6599.353516
9927.892013	1.546307	0.330339	8216.791016
9927.892924	1.502915	0.330339	9585.946289
9927.893816	1.461987	0.330339	10890.039062
9927.894742	1.422283	0.330339	12207.073242
9927.895747	1.380875	0.330339	13594.852539
9927.896674	1.233644	0.330339	14738.440430
9927.897544	0.197267	0.330339	14910.062500
9927.898594	0.090527	0.330339	15005.116211
9927.899467	0.090593	0.330339	15084.204102
9927.900329	0.090604	0.330339	15162.304687
9927.901212	0.090736	0.330339	15242.424805
9927.902253	0.090590	0.330339	15336.728516
9927.903152	0.090608	0.330339	15418.184570
9927.904022	0.090667	0.330339	15497.064453
9927.905015	0.090612	0.330339	15587.041992
9927.905951	0.090604	0.330339	15671.847656
9928.875467	1.218640	0.345775	534.983032
9928.876350	1.712758	0.345775	2047.348022
9928.877229	1.694971	0.345775	3537.227295
9928.878253	1.643038	0.345775	5219.698730
9928.879183	1.594028	0.345775	6702.145020
9928.880114	1.549010	0.345775	8144.273437
9928.880980	1.506782	0.345775	9449.146484
9928.882016	1.460541	0.345775	10962.266602
9928.882896	1.422206	0.345775	12213.807617
9928.883777	1.385797	0.345775	13434.695312
9928.884750	1.237709	0.345775	14638.986328
9928.885710	0.193414	0.345775	14824.664062
9928.886621	0.090538	0.345775	14907.144531
9928.887490	0.090648	0.345775	14985.917969
9928.888521	0.090670	0.345775	15079.398437
9928.889411	0.090590	0.345775	15160.023437
9928.890285	0.090579	0.345775	15239.189453
9928.891192	0.090681	0.345775	15321.437500
9928.892203	0.090648	0.345775	15413.083008
9928.893094	0.090590	0.345775	15493.798828
9928.893962	0.090652	0.345775	15572.484375
9929.922026	1.249687	0.327543	576.105896
9929.922916	1.713695	0.327543	2101.294434
9929.923787	1.693575	0.327543	3576.398437
9929.924780	1.642500	0.327543	5207.400879
9929.925704	1.594233	0.327543	6680.472656
9929.926627	1.549329	0.327543	8110.502930
9929.927505	1.507046	0.327543	9433.689453
9929.928548	1.460211	0.327543	10956.689453
9929.929447	1.421591	0.327543	12234.699219
9929.930327	1.384911	0.327543	13453.420898
9929.931295	1.248186	0.327543	14661.665039
9929.932260	0.192755	0.327543	14847.673828
9929.933182	0.090498	0.327543	14931.113281
9929.934050	0.090619	0.327543	15009.770508
9929.935081	0.090597	0.327543	15103.175781
9929.935952	0.090597	0.327543	15182.085937
9929.936825	0.090619	0.327543	15261.196289
9929.937709	0.090674	0.327543	15341.351562
9929.938734	0.090597	0.327543	15434.213867
9929.939632	0.090597	0.327543	15515.570312
9929.940503	0.090601	0.327543	15594.483398
9930.917307	1.202139	0.337972	512.111084
9930.918346	1.715427	0.337972	2294.439941
9930.919249	1.686636	0.337972	3817.472168
9930.920132	1.640241	0.337972	5265.804687
9930.921054	1.593208	0.337972	6734.742187
9930.922051	1.545004	0.337972	8275.111328
9930.922941	1.502560	0.337972	9612.389648
9930.923804	1.460815	0.337972	10873.073242
9930.924936	1.415837	0.337972	12475.800781
9930.925820	1.378466	0.337972	13694.364258
9930.926692	1.225023	0.337972	14762.583984
9930.927577	0.191415	0.337972	14931.986328
9930.928600	0.090608	0.337972	15024.677734
9930.929499	0.090740	0.337972	15106.252930
9930.930363	0.090776	0.337972	15184.683594
9930.931447	0.090703	0.337972	15283.005859
9930.932366	0.090674	0.337972	15366.334961
9930.933244	0.090725	0.337972	15445.991211
9930.934213	0.090817	0.337972	15533.992187
9930.935220	0.090769	0.337972	15625.396484
9930.936104	0.090703	0.337972	15705.578125
9931.955652	1.203691	0.326246	518.790955
9931.956518	1.711593	0.326246	2001.030518
9931.957510	1.690477	0.326246	3677.983887
9931.958502	1.638373	0.326246	5303.249512
9931.959400	1.592974	0.326246	6733.739746
9931.960267	1.548409	0.326246	8076.210937
9931.961387	1.497828	0.326246	9753.778320
9931.962300	1.456047	0.326246	11083.149414
9931.963176	1.418914	0.326246	12326.117187
9931.964172	1.377693	0.326246	13698.298828
9931.965181	1.052812	0.326246	14760.586914
9931.966082	0.124017	0.326246	14872.326172
9931.966943	0.090718	0.326246	14950.434570
9931.968041	0.090729	0.326246	15050.054687
9931.968936	0.090615	0.326246	15131.155273
9931.969808	0.090685	0.326246	15210.232422
9931.970804	0.090765	0.326246	15300.634766
9931.971812	0.090732	0.326246	15392.092773
9931.972691	0.090648	0.326246	15471.772461
9931.973556	0.090736	0.326246	15550.258789
9931.974645	0.090725	0.326246	15649.058594
9932.958197	1.252515	0.321186	599.954529
9932.959084	1.714640	0.321186	2120.840088
9932.959947	1.692945	0.321186	3581.852051
9932.961009	1.637966	0.321186	5321.372070
9932.961959	1.589839	0.321186	6831.718750
9932.962857	1.545905	0.321186	8219.941406
9932.963803	1.501414	0.321186	9640.278320
9932.964837	1.454703	0.321186	11144.441406
9932.965722	1.416779	0.321186	12398.290039
9932.966589	1.380546	0.321186	13595.222656
9932.967644	1.060942	0.321186	14714.516602
9932.968606	0.122194	0.321186	14832.066406
9932.969478	0.090659	0.321186	14911.121094
9932.970387	0.090714	0.321186	14993.580078
9932.971444	0.090634	0.321186	15089.379883
9932.972342	0.090667	0.321186	15170.798828
9932.973203	0.090656	0.321186	15248.853516
9932.974214	0.090776	0.321186	15340.628906
9932.975183	0.090645	0.321186	15428.463867
9932.976055	0.090747	0.321186	15507.595703
9932.976922	0.090743	0.321186	15586.270508
9933.991422	1.254917	0.313843	614.909302
9933.992296	1.714541	0.313843	2113.418213
9933.993235	1.689210	0.313843	3699.586426
9933.994307	1.633901	0.313843	5451.128906
9933.995241	1.586159	0.313843	6932.601074
9933.996119	1.542660	0.313843	8287.056641
9933.997174	1.493679	0.313843	9862.888672
9933.998197	1.447906	0.313843	11344.096680
9933.999089	1.410366	0.313843	12602.143555
9934.000050	1.370665	0.313843	13919.352539
9934.001124	0.765560	0.313843	14741.564453
9934.002041	0.095350	0.313843	14829.000977
9934.002903	0.090659	0.313843	14907.149414
9934.004001	0.090809	0.313843	15006.858398
9934.004993	0.090692	0.313843	15096.825195
9934.005884	0.090707	0.313843	15177.644531
9934.006888	0.090791	0.313843	15268.798828
9934.007939	0.090754	0.313843	15364.181641
9934.008829	0.090659	0.313843	15444.868164
9934.009688	0.090751	0.313843	15522.823242
9934.010789	0.090831	0.313843	15622.828125
9934.997017	1.281515	0.311821	647.165039
9934.998048	1.716376	0.311821	2416.748535
9934.998929	1.683464	0.311821	3899.880859
9934.999890	1.633854	0.311821	5470.014648
9935.000954	1.579098	0.311821	7150.174805
9935.001883	1.534611	0.311821	8575.828125
9935.002756	1.492548	0.311821	9878.822266
9935.003841	1.445013	0.311821	11446.662109
9935.004853	1.402335	0.311821	12865.825195
9935.005747	1.365443	0.311821	14086.531250
9935.006744	0.707651	0.311821	14792.059570
9935.007804	0.092080	0.311821	14889.664062
9935.008699	0.090721	0.311821	14970.859375
9935.009561	0.090758	0.311821	15049.092773
9935.010671	0.090817	0.311821	15149.899414
9935.011630	0.090645	0.311821	15236.827148
9935.012497	0.090732	0.311821	15315.492187
9935.013572	0.090762	0.311821	15413.060547
9935.014601	0.090685	0.311821	15506.375000
9935.015480	0.090656	0.311821	15586.061523
9935.016397	0.090780	0.311821	15669.306641
9936.028128	1.246593	0.312421	563.460022
9936.029004	1.713270	0.312421	2064.284912
9936.030011	1.688657	0.312421	3764.762695
9936.031067	1.634106	0.312421	5490.378906
9936.031947	1.587861	0.312421	6887.696777
9936.032820	1.542894	0.312421	8234.643555
9936.033931	1.492877	0.312421	9893.230469
9936.034890	1.450096	0.312421	11283.873047
9936.035769	1.412919	0.312421	12525.828125
9936.036795	1.370266	0.312421	13931.720703
9936.037842	0.791913	0.312421	14760.853516
9936.038731	0.097229	0.312421	14847.290039
9936.039658	0.090663	0.312421	14931.334961
9936.040715	0.090743	0.312421	15027.250977
9936.041664	0.090765	0.312421	15113.387695
9936.042527	0.090802	0.312421	15191.750000
9936.043582	0.090773	0.312421	15287.515625
9936.044597	0.090743	0.312421	15379.620117
9936.045486	0.090751	0.312421	15460.297852
9936.046441	0.090824	0.312421	15547.035156
9936.047479	0.090824	0.312421	15641.310547
9937.036827	1.277710	0.313315	650.354370
9937.037858	1.716101	0.313315	2419.654541
9937.038741	1.683223	0.313315	3905.940186
9937.039733	1.633037	0.313315	5525.913086
9937.040791	1.578545	0.313315	7196.013672
9937.041696	1.534233	0.313315	8584.495117
9937.042566	1.492130	0.313315	9882.648437
9937.043632	1.445149	0.313315	11423.177734
9937.044637	1.402994	0.313315	12833.187500
9937.045532	1.366256	0.313315	14055.986328
9937.046519	0.742295	0.313315	14788.631836
9937.047580	0.092648	0.313315	14886.930664
9937.048486	0.090692	0.313315	14969.097656
9937.049352	0.090725	0.313315	15047.666016
9937.050463	0.090703	0.313315	15148.437500
9937.051424	0.090634	0.313315	15235.536133
9937.052290	0.090688	0.313315	15314.072266
9937.053402	0.090736	0.313315	15414.970703
9937.054444	0.090710	0.313315	15509.491211
9937.055340	0.090721	0.313315	15590.777344
9937.056287	0.090747	0.313315	15676.714844
9938.065850	1.196730	0.329207	505.019928
9938.066939	1.714589	0.329207	2372.207031
9938.067933	1.679110	0.329207	4041.242432
9938.068831	1.632286	0.329207	5507.035645
9938.069842	1.581768	0.329207	7106.202637
9938.070903	1.531410	0.329207	8731.028320
9938.071790	1.488083	0.329207	10050.958008
9938.072672	1.447760	0.329207	11327.882812
9938.073763	1.403357	0.329207	12858.945312
9938.074716	1.363879	0.329207	14158.722656
9938.075581	0.826260	0.329207	14873.437500
9938.076620	0.095464	0.329207	14972.624023
9938.077653	0.090681	0.329207	15066.297852
9938.078522	0.090699	0.329207	15145.115234
9938.079431	0.090729	0.329207	15227.587891
9938.080499	0.090798	0.329207	15324.560547
9938.081440	0.090663	0.329207	15409.874023
9938.082309	0.090707	0.329207	15488.698242
9938.083343	0.090773	0.329207	15582.557617
9938.084373	0.090699	0.329207	15675.978516
9938.085256	0.090721	0.329207	15756.085937
9939.075522	1.201809	0.332953	514.374268
9939.076555	1.713794	0.332953	2284.723389
9939.077585	1.680667	0.332953	4015.810059
9939.078471	1.634132	0.332953	5463.651367
9939.079431	1.585653	0.332953	6985.878418
9939.080503	1.533278	0.332953	8629.551758
9939.081439	1.488955	0.332953	10023.213867
9939.082302	1.449587	0.332953	11274.208008
9939.083356	1.406115	0.332953	12756.252930
9939.084378	1.364139	0.332953	14150.403320
9939.085260	0.802625	0.332953	14858.318359
9939.086234	0.098544	0.332953	14954.299805
9939.087278	0.090718	0.332953	15049.008789
9939.088192	0.090721	0.332953	15131.927734
9939.089059	0.090677	0.332953	15210.544922
9939.090121	0.090765	0.332953	15306.937500
9939.091123	0.090696	0.332953	15397.814453
9939.092021	0.090645	0.332953	15479.212891
9939.093005	0.090861	0.332953	15568.620117
9939.094052	0.090677	0.332953	15663.559570
9939.094959	0.090648	0.332953	15745.777344
9940.104638	1.192394	0.337944	510.344574
9940.105502	1.710637	0.337944	1988.335205
9940.106565	1.687258	0.337944	3781.890625
9940.107577	1.634169	0.337944	5435.669434
9940.108463	1.589106	0.337944	6843.617676
9940.109456	1.541942	0.337944	8374.766602
9940.110515	1.491412	0.337944	9954.171875
9940.111424	1.450279	0.337944	11272.475586
9940.112287	1.412637	0.337944	12491.581055
9940.113387	1.368552	0.337944	13996.988281
9940.114384	0.787028	0.337944	14781.654297
9940.115261	0.097950	0.337944	14867.556641
9940.116257	0.090769	0.337944	14957.962891
9940.117326	0.090747	0.337944	15054.971680
9940.118203	0.090703	0.337944	15134.518555
9940.119067	0.090791	0.337944	15212.961914
9940.120173	0.090795	0.337944	15313.380859
9940.121138	0.090688	0.337944	15400.895508
9940.122002	0.090699	0.337944	15479.259766
9940.123058	0.090798	0.337944	15575.142578
9940.124099	0.090692	0.337944	15669.552734
9941.111248	1.215095	0.344289	539.502258
9941.112113	1.711366	0.344289	2019.833740
9941.113191	1.685790	0.344289	3837.115234
9941.114190	1.633407	0.344289	5468.888672
9941.115079	1.588356	0.344289	6880.937012
9941.116080	1.540371	0.344289	8422.848633
9941.117146	1.489819	0.344289	10010.996094
9941.118050	1.449023	0.344289	11320.913086
9941.118913	1.411179	0.344289	12538.760742
9941.120005	1.367637	0.344289	14032.219727
9941.121005	0.758763	0.344289	14790.983398
9941.121870	0.096947	0.344289	14874.842773
9941.122867	0.090729	0.344289	14965.299805
9941.123923	0.090736	0.344289	15061.117187
9941.124810	0.090645	0.344289	15141.518555
9941.125698	0.090721	0.344289	15222.079102
9941.126796	0.090795	0.344289	15321.771484
9941.127748	0.090667	0.344289	15408.085937
9941.128615	0.090692	0.344289	15486.715820
9941.129627	0.090784	0.344289	15578.588867
9941.130668	0.090718	0.344289	15673.026367
9942.144450	1.195309	0.324868	515.178101
9942.145322	1.711373	0.324868	2007.495605
9942.146376	1.686691	0.324868	3785.267578
9942.147390	1.633993	0.324868	5442.136230
9942.148294	1.588019	0.324868	6877.705078
9942.149267	1.541316	0.324868	8377.405273
9942.150332	1.490706	0.324868	9965.006836
9942.151246	1.449591	0.324868	11289.933594
9942.152111	1.411776	0.324868	12511.120117
9942.153207	1.367648	0.324868	14010.061523
9942.154193	0.791052	0.324868	14790.039062
9942.155076	0.098258	0.324868	14876.800781
9942.156073	0.090839	0.324868	14967.367187
9942.157116	0.090732	0.324868	15062.000977
9942.158006	0.090688	0.324868	15142.713867
9942.158867	0.090758	0.324868	15220.856445
9942.159970	0.090795	0.324868	15321.002930
9942.160930	0.090721	0.324868	15408.095703
9942.161786	0.090751	0.324868	15485.778320
9942.162856	0.090842	0.324868	15582.979492
9942.163905	0.090710	0.324868	15678.134766
9943.149079	1.251346	0.335084	646.946106
9943.150139	1.715292	0.335084	2465.155273
9943.151069	1.679301	0.335084	4026.904785
9943.151939	1.632521	0.335084	5447.197754
9943.153025	1.578669	0.335084	7161.632812
9943.154028	1.530044	0.335084	8696.266602
9943.154922	1.488252	0.335084	10026.763672
9943.155910	1.444702	0.335084	11454.128906
9943.156977	1.400105	0.335084	12948.041016
9943.157879	1.362539	0.335084	14177.050781
9943.158749	0.746913	0.335084	14826.865234
9943.159845	0.092531	0.335084	14928.278320
9943.160820	0.090586	0.335084	15016.599609
9943.161679	0.090630	0.335084	15094.450195
9943.162762	0.090784	0.335084	15192.768555
9943.163799	0.090685	0.335084	15286.808594
9943.164679	0.090740	0.335084	15366.659180
9943.165598	0.090707	0.335084	15450.018555
9943.166649	0.090758	0.335084	15545.405273
9943.167587	0.090710	0.335084	15630.491211
9943.168442	0.090667	0.335084	15708.010742
9944.182210	1.198246	0.330266	518.840454
9944.183077	1.711088	0.330266	2002.353516
9944.184044	1.691547	0.330266	3638.079102
9944.184979	1.643390	0.330266	5174.648437
9944.185873	1.597160	0.330266	6602.508789
9944.186745	1.552603	0.330266	7956.377930
9944.187743	1.507061	0.330266	9460.423828
9944.188672	1.464251	0.330266	10820.712891
9944.189540	1.426143	0.330266	12058.604492
9944.190578	1.383856	0.330266	13495.046875
9944.191470	1.294292	0.330266	14649.555664
9944.192380	0.243300	0.330266	14870.958008
9944.193257	0.090582	0.330266	14950.398437
9944.194248	0.090652	0.330266	15040.234375
9944.195169	0.090652	0.330266	15123.724609
9944.196041	0.090699	0.330266	15202.814453
9944.197057	0.090667	0.330266	15294.931641
9944.197954	0.090685	0.330266	15376.276367
9944.198869	0.090641	0.330266	15459.212891
9944.199732	0.090659	0.330266	15537.452148
9944.200719	0.090769	0.330266	15627.041016
9945.186853	1.291465	0.333755	671.561707
9945.187743	1.715768	0.333755	2198.595215
9945.188620	1.690188	0.333755	3680.890137
9945.189513	1.642064	0.333755	5147.253418
9945.190562	1.590106	0.333755	6815.274902
9945.191450	1.546582	0.333755	8188.639648
9945.192323	1.505178	0.333755	9502.660156
9945.193349	1.459977	0.333755	11000.596680
9945.194272	1.418906	0.333755	12310.247070
9945.195189	1.381245	0.333755	13576.848633
9945.196056	1.219017	0.333755	14633.736328
9945.197087	0.158408	0.333755	14797.055664
9945.197984	0.090549	0.333755	14878.278320
9945.198856	0.090681	0.333755	14957.352539
9945.199826	0.090707	0.333755	15045.337891
9945.200786	0.090699	0.333755	15132.409180
9945.201708	0.090604	0.333755	15215.946289
9945.202577	0.090674	0.333755	15294.742187
9945.203618	0.090688	0.333755	15389.148437
9945.204498	0.090634	0.333755	15468.906250
9945.205367	0.090652	0.333755	15547.682617
9946.220994	1.190541	0.322612	508.360931
9946.221864	1.711223	0.322612	1997.125122
9946.222782	1.693308	0.322612	3551.582031
9946.223799	1.640896	0.322612	5220.373047
9946.224696	1.594999	0.322612	6651.086914
9946.225577	1.551929	0.322612	8018.335937
9946.226584	1.505043	0.322612	9533.914062
9946.227522	1.460808	0.322612	10904.152344
9946.228447	1.421873	0.322612	12219.384766
9946.229321	1.384753	0.322612	13429.659180
9946.230359	1.235991	0.322612	14712.618164
9946.231251	0.194641	0.322612	14886.238281
9946.232119	0.090626	0.322612	14964.901367
9946.233115	0.090754	0.322612	15055.292969
9946.234032	0.090743	0.322612	15138.504883
9946.234941	0.090648	0.322612	15220.904297
9946.235812	0.090659	0.322612	15299.868164
9946.236846	0.090692	0.322612	15393.643555
9946.237740	0.090648	0.322612	15474.682617
9946.238603	0.090634	0.322612	15552.899414
9946.239647	0.090721	0.322612	15647.612305
9947.223528	1.245066	0.344740	582.690857
9947.224403	1.713263	0.344740	2081.795898
9947.225270	1.693290	0.344740	3549.878174
9947.226352	1.637933	0.344740	5322.122070
9947.227296	1.589337	0.344740	6822.456055
9947.228177	1.546465	0.344740	8184.891602
9947.229155	1.501359	0.344740	9653.220703
9947.230177	1.454506	0.344740	11139.725586
9947.231070	1.416266	0.344740	12404.451172
9947.231937	1.379692	0.344740	13600.644531
9947.233006	1.050480	0.344740	14723.607422
9947.233934	0.123915	0.344740	14838.600586
9947.234803	0.090590	0.344740	14917.323242
9947.235758	0.090791	0.344740	15004.028320
9947.236807	0.090677	0.344740	15099.149414
9947.237685	0.090656	0.344740	15178.745117
9947.238550	0.090688	0.344740	15257.190430
9947.239583	0.090813	0.344740	15351.000000
9947.240529	0.090674	0.344740	15436.777344
9947.241403	0.090667	0.344740	15516.019531
9947.242336	0.090773	0.344740	15600.710937
9948.258898	1.342401	0.315498	761.141357
9948.259942	1.715610	0.315498	2552.238770
9948.260829	1.679359	0.315498	4041.830322
9948.261761	1.630756	0.315498	5561.694336
9948.262835	1.576798	0.315498	7255.175293
9948.263777	1.531022	0.315498	8697.397461
9948.264640	1.490068	0.315498	9983.326172
9948.265693	1.444244	0.315498	11504.115234
9948.266711	1.401240	0.315498	12930.578125
9948.267586	1.364476	0.315498	14124.495117
9948.268552	0.731250	0.315498	14830.882812
9948.269601	0.092542	0.315498	14927.958984
9948.270531	0.090648	0.315498	15012.261719
9948.271401	0.090710	0.315498	15091.179687
9948.272456	0.090762	0.315498	15186.933594
9948.273457	0.090659	0.315498	15277.683594
9948.274345	0.090637	0.315498	15358.169922
9948.275312	0.090842	0.315498	15446.014648
9948.276362	0.090806	0.315498	15541.360352
9948.277282	0.090688	0.315498	15624.793945
9948.278145	0.090677	0.315498	15703.048828
9949.261237	1.189230	0.337767	499.476471
9949.262294	1.713735	0.337767	2310.894775
9949.263331	1.679487	0.337767	4052.523193
9949.264203	1.633033	0.337767	5476.528320
9949.265176	1.583961	0.337767	7017.722656
9949.266242	1.532457	0.337767	8651.322266
9949.267159	1.488578	0.337767	10016.347656
9949.268033	1.448533	0.337767	11282.365234
9949.269122	1.403947	0.337767	12811.262695
9949.270119	1.362422	0.337767	14169.597656
9949.271026	0.743829	0.337767	14844.250977
9949.272014	0.095116	0.337767	14938.225586
9949.273080	0.090784	0.337767	15035.000977
9949.273969	0.090641	0.337767	15115.581055
9949.274837	0.090714	0.337767	15194.321289
9949.275951	0.090795	0.337767	15295.466797
9949.276915	0.090710	0.337767	15382.912109
9949.277780	0.090692	0.337767	15461.360352
9949.278826	0.090835	0.337767	15556.374023
9949.279857	0.090692	0.337767	15649.877930
9949.280735	0.090667	0.337767	15729.483398
9950.296562	1.261454	0.318097	597.929138
9950.297437	1.713871	0.318097	2097.566162
9950.298423	1.688525	0.318097	3762.452148
9950.299475	1.633550	0.318097	5480.946289
9950.300388	1.586616	0.318097	6929.526855
9950.301253	1.542920	0.318097	8264.152344
9950.302349	1.492906	0.318097	9900.377930
9950.303352	1.447939	0.318097	11352.661133
9950.304235	1.410590	0.318097	12598.211914
9950.305262	1.368669	0.318097	14003.834961
9950.306325	0.731137	0.318097	14781.033203
9950.307192	0.095054	0.318097	14863.444336
9950.308063	0.090670	0.318097	14942.417969
9950.309184	0.090791	0.318097	15044.194336
9950.310133	0.090692	0.318097	15130.260742
9950.311000	0.090677	0.318097	15208.877930
9950.312055	0.090765	0.318097	15304.635742
9950.313093	0.090685	0.318097	15398.766602
9950.313981	0.090714	0.318097	15479.320312
9950.314906	0.090699	0.318097	15563.217773
9950.315973	0.090754	0.318097	15660.052734
9951.300054	1.211993	0.334758	538.125061
9951.300918	1.711765	0.334758	2017.090088
9951.301965	1.687203	0.334758	3783.591797
9951.303014	1.632664	0.334758	5496.255859
9951.303894	1.587374	0.334758	6893.145020
9951.304827	1.541715	0.334758	8331.565430
9951.305916	1.491039	0.334758	9955.306641
9951.306850	1.448672	0.334758	11308.366211
9951.307720	1.411538	0.334758	12536.404297
9951.308773	1.367988	0.334758	13976.895508
9951.309799	0.757617	0.334758	14754.210937
9951.310689	0.096218	0.334758	14839.844727
9951.311658	0.090791	0.334758	14927.821289
9951.312705	0.090736	0.334758	15022.822266
9951.313627	0.090648	0.334758	15106.400391
9951.314489	0.090751	0.334758	15184.627930
9951.315573	0.090850	0.334758	15283.109375
9951.316566	0.090736	0.334758	15373.209961
9951.317456	0.090703	0.334758	15453.935547
9951.318432	0.090776	0.334758	15542.533203
9951.319484	0.090747	0.334758	15637.999023
9952.334264	1.190222	0.313299	502.273743
9952.335320	1.714384	0.313299	2312.662842
9952.336341	1.679539	0.313299	4027.471680
9952.337237	1.632817	0.313299	5490.476074
9952.338204	1.584273	0.313299	7022.467773
9952.339263	1.532699	0.313299	8645.595703
9952.340184	1.488944	0.313299	10016.913086
9952.341050	1.449489	0.313299	11272.169922
9952.342148	1.404368	0.313299	12814.166016
9952.343141	1.363151	0.313299	14167.774414
9952.344025	0.784274	0.313299	14861.072266
9952.345052	0.096768	0.313299	14960.452148
9952.346094	0.090688	0.313299	15054.949219
9952.346975	0.090699	0.313299	15134.855469
9952.347830	0.090743	0.313299	15212.441406
9952.348926	0.090795	0.313299	15311.952148
9952.349887	0.090601	0.313299	15399.019531
9952.350750	0.090780	0.313299	15477.362305
9952.351844	0.090835	0.313299	15576.735352
9952.352887	0.090707	0.313299	15671.342773
9952.353778	0.090758	0.313299	15752.208008
9953.337801	1.210356	0.343902	530.136108
9953.338665	1.710212	0.343902	2007.759521
9953.339710	1.687419	0.343902	3771.112793
9953.340599	1.640779	0.343902	5229.765137
9953.341471	1.596215	0.343902	6621.664062
9953.342467	1.547791	0.343902	8163.263672
9953.343397	1.502875	0.343902	9560.937500
9953.344311	1.461478	0.343902	10896.728516
9953.345186	1.423264	0.343902	12142.084961
9953.346224	1.381304	0.343902	13575.877930
9953.347121	1.264940	0.343902	14710.529297
9953.347998	0.217734	0.343902	14901.482422
9953.348965	0.090659	0.343902	14989.149414
9953.349935	0.090718	0.343902	15077.145508
9953.350865	0.090656	0.343902	15161.455078
9953.351732	0.090681	0.343902	15240.075195
9953.352764	0.090751	0.343902	15333.729492
9953.353636	0.090692	0.343902	15412.813477
9953.354505	0.090692	0.343902	15491.625000
9953.355410	0.090817	0.343902	15573.814453
9953.356429	0.090663	0.343902	15666.200195
9954.372147	1.313862	0.307837	702.916260
9954.373104	1.716632	0.307837	2345.733154
9954.373984	1.685658	0.307837	3829.112305
9954.374903	1.637311	0.307837	5333.800781
9954.375979	1.583642	0.307837	7037.799805
9954.376865	1.540159	0.307837	8402.380859
9954.377734	1.498770	0.307837	9704.811523
9954.378794	1.451334	0.307837	11243.225586
9954.379765	1.410538	0.307837	12612.858398
9954.380645	1.373698	0.307837	13821.711914
9954.381555	0.994028	0.307837	14726.277344
9954.382658	0.103938	0.307837	14840.920898
9954.383533	0.090549	0.307837	14920.151367
9954.384398	0.090659	0.307837	14998.571289
9954.385414	0.090791	0.307837	15090.815430
9954.386380	0.090608	0.307837	15178.342773
9954.387258	0.090579	0.307837	15257.871094
9954.388137	0.090597	0.307837	15337.505859
9954.389228	0.090634	0.307837	15436.386719
9954.390129	0.090524	0.307837	15517.948242
9954.390993	0.090623	0.307837	15596.246094
9955.376600	1.228982	0.334959	544.438965
9955.377471	1.712256	0.334959	2035.813843
9955.378476	1.688979	0.334959	3733.238281
9955.379486	1.635798	0.334959	5385.394531
9955.380375	1.590546	0.334959	6799.389648
9955.381236	1.546564	0.334959	8130.980957
9955.382314	1.497561	0.334959	9745.351562
9955.383226	1.455604	0.334959	11072.862305
9955.384112	1.418079	0.334959	12329.280273
9955.385092	1.377880	0.334959	13679.602539
9955.386106	1.059899	0.334959	14754.339844
9955.387004	0.125684	0.334959	14867.204102
9955.387865	0.090509	0.334959	14945.132812
9955.388962	0.090645	0.334959	15044.570312
9955.389885	0.090608	0.334959	15128.201172
9955.390761	0.090677	0.334959	15207.634766
9955.391754	0.090754	0.334959	15297.753906
9955.392755	0.090612	0.334959	15388.456055
9955.393627	0.090652	0.334959	15467.504883
9955.394482	0.090630	0.334959	15544.993164
9955.395563	0.090773	0.334959	15643.118164
9956.407738	1.202362	0.321706	509.801514
9956.408815	1.714633	0.321706	2356.460693
9956.409747	1.682937	0.321706	3924.958008
9956.410614	1.636300	0.321706	5343.629883
9956.411699	1.582335	0.321706	7060.463867
9956.412694	1.534384	0.321706	8587.175781
9956.413587	1.491910	0.321706	9919.452148
9956.414454	1.451627	0.321706	11178.012695
9956.415557	1.407107	0.321706	12730.051758
9956.416466	1.368940	0.321706	13974.418945
9956.417332	0.964651	0.321706	14809.806641
9956.418421	0.099921	0.321706	14918.620117
9956.419409	0.090612	0.321706	15008.144531
9956.420281	0.090696	0.321706	15087.231445
9956.421264	0.090747	0.321706	15176.435547
9956.422315	0.090626	0.321706	15271.683594
9956.423208	0.090623	0.321706	15352.609375
9956.424069	0.090674	0.321706	15430.679687
9956.425180	0.090740	0.321706	15531.491211
9956.426148	0.090652	0.321706	15619.242187
9956.427012	0.090615	0.321706	15697.534180
9957.414442	1.287924	0.324304	691.614929
9957.415506	1.715464	0.324304	2516.868408
9957.416416	1.678579	0.324304	4044.375488
9957.417284	1.631495	0.324304	5460.513672
9957.418388	1.577325	0.324304	7201.880859
9957.419358	1.530205	0.324304	8686.179687
9957.420235	1.489270	0.324304	9992.269531
9957.421268	1.443995	0.324304	11483.916992
9957.422328	1.399658	0.324304	12967.554687
9957.423213	1.362645	0.324304	14173.496094
9957.424129	0.733916	0.324304	14845.762695
9957.425200	0.092512	0.324304	14944.843750
9957.426144	0.090641	0.324304	15030.409180
9957.427000	0.090575	0.324304	15107.941406
9957.428052	0.090699	0.324304	15203.357422
9957.429079	0.090597	0.324304	15296.400391
9957.429953	0.090645	0.324304	15375.624023
9957.430888	0.090721	0.324304	15460.448242
9957.431941	0.090692	0.324304	15555.947266
9957.432876	0.090608	0.324304	15640.666016
9957.433749	0.090637	0.324304	15719.791992
9958.445572	1.260190	0.303502	625.054504
9958.446448	1.714482	0.303502	2126.941162
9958.447361	1.689412	0.303502	3669.374023
9958.448466	1.633041	0.303502	5473.883789
9958.449409	1.584957	0.303502	6968.498535
9958.450278	1.542177	0.303502	8308.650391
9958.451341	1.492632	0.303502	9895.318359
9958.452350	1.447434	0.303502	11355.779297
9958.453240	1.409920	0.303502	12610.607422
9958.454202	1.370493	0.303502	13929.021484
9958.455256	0.783267	0.303502	14754.583984
9958.456174	0.096302	0.303502	14842.989258
9958.457040	0.090688	0.303502	14921.525391
9958.458112	0.090663	0.303502	15018.715820
9958.459122	0.090586	0.303502	15110.208008
9958.460003	0.090641	0.303502	15190.062500
9958.461012	0.090725	0.303502	15281.604492
9958.462062	0.090604	0.303502	15376.739258
9958.462963	0.090663	0.303502	15458.426758
9958.463821	0.090670	0.303502	15536.221680
9958.464887	0.090762	0.303502	15632.973633
9959.451165	1.295460	0.312691	663.275635
9959.452203	1.716035	0.312691	2444.520020
9959.453097	1.681659	0.312691	3947.923096
9959.454048	1.632836	0.312691	5500.750000
9959.455103	1.578907	0.312691	7166.497070
9959.456050	1.533120	0.312691	8618.361328
9959.456914	1.491434	0.312691	9906.960937
9959.457994	1.444318	0.312691	11466.824219
9959.459006	1.401541	0.312691	12885.183594
9959.459892	1.365059	0.312691	14094.625977
9959.460887	0.710804	0.312691	14801.875977
9959.461928	0.092476	0.312691	14898.142578
9959.462838	0.090663	0.312691	14980.645508
9959.463697	0.090663	0.312691	15058.524414
9959.464790	0.090758	0.312691	15157.722656
9959.465779	0.090663	0.312691	15247.388672
9959.466654	0.090582	0.312691	15326.648437
9959.467649	0.090747	0.312691	15416.941406
9959.468725	0.090645	0.312691	15514.474609
9959.469607	0.090740	0.312691	15594.506836
9959.470478	0.090641	0.312691	15673.455078
9960.484369	1.279120	0.283260	639.559937
9960.485400	1.715691	0.283260	2408.437256
9960.486295	1.682780	0.283260	3914.524902
9960.487224	1.634073	0.283260	5432.579102
9960.488303	1.579600	0.283260	7136.966797
9960.489238	1.534380	0.283260	8571.612305
9960.490158	1.490878	0.283260	9943.219727
9960.491045	1.451356	0.283260	11230.572266
9960.491984	1.412670	0.283260	12557.069336
9960.492917	1.372434	0.283260	13837.550781
9960.493844	1.042332	0.283260	14803.791992
9960.494712	0.126215	0.283260	14913.346680
9960.495763	0.090626	0.283260	15008.594727
9960.496677	0.090604	0.283260	15091.407227
9960.497574	0.090659	0.283260	15172.728516
9960.498453	0.090582	0.283260	15252.350586
9960.499454	0.090608	0.283260	15343.048828
9960.500381	0.090667	0.283260	15427.096680
9960.501254	0.090637	0.283260	15506.222656
9960.502269	0.090645	0.283260	15598.226562
9960.503161	0.090590	0.283260	15679.032227
9961.487801	1.214308	0.286643	514.866577
9961.488858	1.716339	0.286643	2329.037109
9961.489757	1.685420	0.286643	3844.229492
9961.490638	1.639523	0.286643	5288.648926
9961.491646	1.589147	0.286643	6890.508789
9961.492604	1.541938	0.286643	8367.685547
9961.493492	1.499440	0.286643	9699.187500
9961.494477	1.456066	0.286643	11133.412109
9961.495486	1.412622	0.286643	12558.748047
9961.496374	1.375309	0.286643	13780.022461
9961.497243	1.170505	0.286643	14797.191406
9961.498235	0.153215	0.286643	14949.180664
9961.499167	0.090590	0.286643	15033.610352
9961.500046	0.090685	0.286643	15113.322266
9961.501006	0.090736	0.286643	15200.428711
9961.502034	0.090688	0.286643	15293.656250
9961.502934	0.090685	0.286643	15375.272461
9961.503799	0.090659	0.286643	15453.692383
9961.504867	0.090729	0.286643	15550.590820
9961.505811	0.090667	0.286643	15636.179687
9961.506683	0.090634	0.286643	15715.211914
9962.522073	1.238079	0.265986	559.611511
9962.522953	1.712787	0.265986	2066.863770
9962.523819	1.692993	0.265986	3532.995850
9962.524918	1.637952	0.265986	5333.104980
9962.525834	1.590754	0.265986	6790.235840
9962.526716	1.547867	0.265986	8155.455078
9962.527709	1.501377	0.265986	9646.322266
9962.528722	1.454791	0.265986	11120.025391
9962.529615	1.416984	0.265986	12385.391602
9962.530480	1.380044	0.265986	13579.129883
9962.531564	1.055892	0.265986	14723.716797
9962.532489	0.125559	0.265986	14839.859375
9962.533361	0.090634	0.265986	14918.891602
9962.534364	0.090707	0.265986	15009.870117
9962.535366	0.090685	0.265986	15100.736328
9962.536235	0.090615	0.265986	15179.481445
9962.537201	0.090743	0.265986	15267.139648
9962.538257	0.090685	0.265986	15362.902344
9962.539176	0.090681	0.265986	15446.238281
9962.540041	0.090645	0.265986	15524.645508
9962.541122	0.090787	0.265986	15622.787109
9963.520561	1.304736	0.275791	712.386047
9963.521631	1.714713	0.275791	2547.129150
9963.522535	1.678231	0.275791	4064.250244
9963.523402	1.630492	0.275791	5477.886719
9963.524531	1.575652	0.275791	7256.797852
9963.525497	1.529564	0.275791	8734.357422
9963.526367	1.488300	0.275791	10029.177734
9963.527441	1.440659	0.275791	11576.445312
9963.528482	1.397369	0.275791	13031.106445
9963.529379	1.360148	0.275791	14251.159180
9963.530342	0.630535	0.275791	14858.364258
9963.531401	0.091223	0.275791	14954.969727
9963.532331	0.090692	0.275791	15039.313477
9963.533193	0.090648	0.275791	15117.452148
9963.534252	0.090725	0.275791	15213.530273
9963.535257	0.090641	0.275791	15304.624023
9963.536136	0.090626	0.275791	15384.284180
9963.537114	0.090769	0.275791	15473.056641
9963.538173	0.090608	0.275791	15569.010742
9963.539080	0.090645	0.275791	15651.225586
9963.539939	0.090623	0.275791	15729.070312
9964.561889	1.240660	0.252677	565.741150
9964.562763	1.712926	0.252677	2062.838379
9964.563762	1.687943	0.252677	3749.093506
9964.564832	1.632887	0.252677	5496.282227
9964.565722	1.586356	0.252677	6908.139160
9964.566597	1.541477	0.252677	8256.931641
9964.567724	1.490618	0.252677	9936.857422
9964.568703	1.447397	0.252677	11353.859375
9964.569577	1.410483	0.252677	12586.622070
9964.570609	1.367622	0.252677	13998.007812
9964.571653	0.726031	0.252677	14755.984375
9964.572541	0.094948	0.252677	14840.297852
9964.573455	0.090762	0.252677	14923.253906
9964.574519	0.090747	0.252677	15019.808594
9964.575472	0.090652	0.252677	15106.200195
9964.576339	0.090659	0.252677	15184.801758
9964.577383	0.090817	0.252677	15279.614258
9964.578393	0.090692	0.252677	15371.212891
9964.579283	0.090688	0.252677	15451.925781
9964.580234	0.090762	0.252677	15538.240234
9964.581277	0.090714	0.252677	15632.855469
