time (s)	coil I (A)	last det (V)	int current (uC)
9049.591244	1.219241	0.215141	514.519592
9049.592316	1.719060	0.215141	2357.352051
9049.593351	1.682465	0.215141	4098.703125
9049.594235	1.635989	0.215141	5544.916992
9049.595217	1.585807	0.215141	7102.179199
9049.596277	1.534526	0.215141	8728.777344
9049.597185	1.491229	0.215141	10082.813477
9049.598054	1.450624	0.215141	11343.405273
9049.599147	1.405748	0.215141	12879.887695
9049.600144	1.364095	0.215141	14239.890625
9049.601043	0.726936	0.215141	14893.406250
9049.602034	0.094885	0.215141	14987.437500
9049.603088	0.090571	0.215141	15082.899414
9049.603977	0.090535	0.215141	15163.384766
9049.604860	0.090597	0.215141	15243.381836
9049.605925	0.090612	0.215141	15339.882812
9049.606896	0.090487	0.215141	15427.746094
9049.607758	0.090494	0.215141	15505.751953
9049.608794	0.090571	0.215141	15599.583984
9049.609827	0.090560	0.215141	15693.132812
9049.610707	0.090535	0.215141	15772.803711
9050.677695	1.193771	0.126735	508.546356
9050.678685	1.717657	0.126735	2209.027100
9050.679741	1.686962	0.126735	3990.458496
9050.680622	1.639493	0.126735	5434.852051
9050.681565	1.591014	0.126735	6935.178711
9050.682649	1.538163	0.126735	8602.546875
9050.683587	1.493774	0.126735	10003.707031
9050.684461	1.453861	0.126735	11274.381836
9050.685531	1.408879	0.126735	12781.882812
9050.686550	1.366183	0.126735	14174.023437
9050.687453	0.782585	0.126735	14880.698242
9050.688426	0.097405	0.126735	14975.472656
9050.689472	0.090535	0.126735	15070.171875
9050.690388	0.090542	0.126735	15153.108398
9050.691248	0.090476	0.126735	15230.917969
9050.692338	0.090652	0.126735	15329.728516
9050.693326	0.090571	0.126735	15419.212891
9050.694213	0.090502	0.126735	15499.488281
9050.695221	0.090630	0.126735	15590.842773
9050.696261	0.090623	0.126735	15685.089844
9050.697150	0.090516	0.126735	15765.558594
9051.629078	1.284294	0.223274	654.990173
9051.630026	1.720957	0.223274	2286.457520
9051.630893	1.693297	0.223274	3754.545898
9051.631912	1.639288	0.223274	5424.980469
9051.632958	1.586495	0.223274	7084.454590
9051.633849	1.542572	0.223274	8458.886719
9051.634787	1.498341	0.223274	9864.330078
9051.635859	1.449807	0.223274	11418.523437
9051.636804	1.409780	0.223274	12750.765625
9051.637674	1.372914	0.223274	13945.200195
9051.638744	0.784395	0.223274	14784.501953
9051.639752	0.093402	0.223274	14878.651367
9051.640646	0.090520	0.223274	14959.576172
9051.641616	0.090637	0.223274	15047.494141
9051.642652	0.090601	0.223274	15141.356445
9051.643568	0.090516	0.223274	15224.269531
9051.644429	0.090630	0.223274	15302.301758
9051.645502	0.090652	0.223274	15399.571289
9051.646503	0.090546	0.223274	15490.207031
9051.647382	0.090546	0.223274	15569.796875
9051.648367	0.090590	0.223274	15659.027344
9052.715556	1.288656	0.122514	666.235168
9052.716522	1.721638	0.122514	2329.337646
9052.717394	1.691514	0.122514	3804.337402
9052.718406	1.638095	0.122514	5462.088867
9052.719466	1.584521	0.122514	7141.681641
9052.720363	1.540503	0.122514	8523.512695
9052.721267	1.496631	0.122514	9876.466797
9052.722353	1.448470	0.122514	11449.505859
9052.723310	1.408447	0.122514	12797.389648
9052.724178	1.371672	0.122514	13988.000977
9052.725213	0.778074	0.122514	14793.307617
9052.726243	0.093021	0.122514	14889.119141
9052.727129	0.090465	0.122514	14969.271484
9052.728077	0.090509	0.122514	15055.074219
9052.729123	0.090630	0.122514	15149.873047
9052.730055	0.090509	0.122514	15234.227539
9052.730918	0.090487	0.122514	15312.318359
9052.731974	0.090637	0.122514	15408.031250
9052.732979	0.090531	0.122514	15499.014648
9052.733861	0.090527	0.122514	15578.859375
9052.734827	0.090546	0.122514	15666.326172
9053.678017	1.196785	0.213256	514.617371
9053.678880	1.714435	0.213256	1994.174561
9053.679899	1.694509	0.213256	3720.879395
9053.680802	1.646056	0.213256	5207.267578
9053.681680	1.600715	0.213256	6612.695801
9053.682707	1.550914	0.213256	8205.484375
9053.683626	1.506742	0.213256	9590.179687
9053.684508	1.465876	0.213256	10883.083008
9053.685443	1.425659	0.213256	12216.074219
9053.686431	1.384574	0.213256	13584.033203
9053.687357	1.254529	0.213256	14745.726562
9053.688245	0.207100	0.213256	14929.630859
9053.689244	0.090527	0.213256	15020.067383
9053.690142	0.090538	0.213256	15101.371094
9053.691063	0.090553	0.213256	15184.770508
9053.691922	0.090579	0.213256	15262.577148
9053.692951	0.090524	0.213256	15355.725586
9053.693838	0.090549	0.213256	15436.042969
9053.694713	0.090564	0.213256	15515.286133
9053.695696	0.090531	0.213256	15604.278320
9053.696637	0.090483	0.213256	15689.422852
9054.742984	1.211847	0.154007	518.670471
9054.743869	1.716735	0.154007	2037.980713
9054.744732	1.697593	0.154007	3503.003418
9054.745849	1.642342	0.154007	5337.500000
9054.746758	1.595574	0.154007	6787.876465
9054.747624	1.552570	0.154007	8132.401367
9054.748716	1.500897	0.154007	9771.380859
9054.749694	1.456373	0.154007	11195.713867
9054.750570	1.418749	0.154007	12438.538086
9054.751458	1.380729	0.154007	13664.625000
9054.752566	1.010914	0.154007	14784.717773
9054.753446	0.119359	0.154007	14889.753906
9054.754305	0.090458	0.154007	14967.457031
9054.755375	0.090516	0.154007	15064.309570
9054.756343	0.090498	0.154007	15151.912109
9054.757207	0.090494	0.154007	15230.099609
9054.758065	0.090531	0.154007	15307.775391
9054.759159	0.090480	0.154007	15406.759766
9054.760063	0.090491	0.154007	15488.563477
9054.760939	0.090483	0.154007	15567.827148
9054.761927	0.090593	0.154007	15657.333008
9055.727049	1.214923	0.191587	528.491577
9055.727910	1.714636	0.191587	2004.793335
9055.729026	1.689532	0.191587	3890.311523
9055.729922	1.641105	0.191587	5360.741211
9055.730794	1.596471	0.191587	6752.863770
9055.731818	1.547205	0.191587	8337.201172
9055.732822	1.498634	0.191587	9841.830078
9055.733716	1.458025	0.191587	11145.304687
9055.734576	1.419221	0.191587	12365.834961
9055.735674	1.375261	0.191587	13875.872070
9055.736590	1.032338	0.191587	14821.493164
9055.737471	0.124285	0.191587	14930.988281
9055.738463	0.090641	0.191587	15020.904297
9055.739466	0.090513	0.191587	15111.688477
9055.740365	0.090590	0.191587	15193.128906
9055.741228	0.090582	0.191587	15271.301758
9055.742332	0.090612	0.191587	15371.336914
9055.743250	0.090428	0.191587	15454.350586
9055.744126	0.090593	0.191587	15533.709961
9055.745121	0.090652	0.191587	15623.908203
9055.746122	0.090553	0.191587	15714.551758
9056.772582	1.242839	0.195362	577.920288
9056.773457	1.717452	0.195362	2080.691162
9056.774320	1.698018	0.195362	3546.080322
9056.775402	1.642581	0.195362	5323.352539
9056.776347	1.594219	0.195362	6829.889160
9056.777227	1.550607	0.195362	8194.422852
9056.778193	1.505537	0.195362	9648.771484
9056.779220	1.457988	0.195362	11146.125000
9056.780109	1.419818	0.195362	12408.343750
9056.780973	1.383318	0.195362	13603.530273
9056.782052	1.061539	0.195362	14748.931641
9056.782990	0.124633	0.195362	14865.836914
9056.783860	0.090461	0.195362	14944.538086
9056.784841	0.090560	0.195362	15033.377930
9056.785865	0.090516	0.195362	15126.066406
9056.786736	0.090509	0.195362	15204.899414
9056.787595	0.090590	0.195362	15282.715820
9056.788622	0.090674	0.195362	15375.837891
9056.789568	0.090450	0.195362	15461.404297
9056.790440	0.090542	0.195362	15540.356445
9056.791365	0.090641	0.195362	15624.199219
9057.770938	1.204537	0.176940	510.723846
9057.772035	1.719456	0.176940	2396.966553
9057.772972	1.685907	0.176940	3976.661377
9057.773849	1.640072	0.176940	5415.004395
9057.774825	1.590700	0.176940	6967.527344
9057.775823	1.541129	0.176940	8505.574219
9057.776703	1.499568	0.176940	9825.194336
9057.777567	1.459200	0.176940	11085.943359
9057.778634	1.414797	0.176940	12595.532227
9057.779571	1.375642	0.176940	13884.508789
9057.780443	1.103415	0.176940	14846.687500
9057.781410	0.138999	0.176940	14981.099609
9057.782434	0.090447	0.176940	15073.716797
9057.783325	0.090524	0.176940	15154.373047
9057.784190	0.090568	0.176940	15232.713867
9057.785259	0.090604	0.176940	15329.569336
9057.786193	0.090494	0.176940	15414.090820
9057.787068	0.090538	0.176940	15493.311523
9057.788019	0.090549	0.176940	15579.423828
9057.789055	0.090461	0.176940	15673.141602
9057.789947	0.090480	0.176940	15753.849609
9058.810298	1.188527	0.187080	503.935303
9058.811270	1.713289	0.187080	2169.251709
9058.812307	1.687086	0.187080	3918.760254
9058.813210	1.639665	0.187080	5399.377930
9058.814076	1.594710	0.187080	6780.396484
9058.815160	1.542048	0.187080	8451.976562
9058.816104	1.497407	0.187080	9865.529297
9058.816983	1.457336	0.187080	11146.528320
9058.817933	1.417434	0.187080	12493.090820
9058.818972	1.373767	0.187080	13920.434570
9058.819865	1.030990	0.187080	14841.108398
9058.820731	0.125087	0.187080	14949.433594
9058.821789	0.090513	0.187080	15045.196289
9058.822719	0.090502	0.187080	15129.363281
9058.823591	0.090586	0.187080	15208.354492
9058.824518	0.090608	0.187080	15292.347656
9058.825580	0.090590	0.187080	15388.553711
9058.826454	0.090505	0.187080	15467.655273
9058.827319	0.090575	0.187080	15546.002930
9058.828338	0.090568	0.187080	15638.291016
9058.829306	0.090524	0.187080	15725.917969
9059.811856	1.275033	0.178354	640.066589
9059.812768	1.719727	0.178354	2208.457275
9059.813645	1.694436	0.178354	3694.477539
9059.814628	1.643533	0.178354	5310.070312
9059.815654	1.590037	0.178354	6941.447754
9059.816548	1.546406	0.178354	8323.934570
9059.817414	1.503783	0.178354	9626.210937
9059.818515	1.455231	0.178354	11228.419922
9059.819443	1.415581	0.178354	12542.079102
9059.820316	1.379070	0.178354	13746.006836
9059.821302	1.041010	0.178354	14772.442383
9059.822330	0.109904	0.178354	14885.422852
9059.823204	0.090491	0.178354	14964.511719
9059.824197	0.090648	0.178354	15054.525391
9059.825242	0.090549	0.178354	15149.149414
9059.826147	0.090549	0.178354	15231.096680
9059.827007	0.090524	0.178354	15308.947266
9059.828083	0.090593	0.178354	15406.425781
9059.829076	0.090520	0.178354	15496.312500
9059.829968	0.090560	0.178354	15577.092773
9059.830950	0.090656	0.178354	15666.116211
9060.850105	1.194097	0.177589	506.296997
9060.851183	1.718090	0.177589	2358.397461
9060.852206	1.682739	0.177589	4079.839844
9060.853081	1.636274	0.177589	5511.580078
9060.854061	1.586737	0.177589	7066.582520
9060.855110	1.535533	0.177589	8677.357422
9060.856021	1.491833	0.177589	10036.417969
9060.856898	1.451426	0.177589	11309.318359
9060.857978	1.406924	0.177589	12828.795898
9060.858980	1.364934	0.177589	14196.459961
9060.859882	0.757108	0.177589	14879.371094
9060.860895	0.095178	0.177589	14975.787109
9060.861950	0.090546	0.177589	15071.312500
9060.862832	0.090524	0.177589	15151.154297
9060.863713	0.090542	0.177589	15230.921875
9060.864805	0.090656	0.177589	15329.917969
9060.865762	0.090491	0.177589	15416.517578
9060.866629	0.090527	0.177589	15495.004883
9060.867692	0.090560	0.177589	15591.270508
9060.868730	0.090560	0.177589	15685.272461
9060.869621	0.090538	0.177589	15765.942383
9061.850546	1.197964	0.194629	501.946838
9061.851632	1.719064	0.194629	2368.850098
9061.852565	1.686771	0.194629	3942.607666
9061.853446	1.640468	0.194629	5387.859375
9061.854437	1.590568	0.194629	6964.111816
9061.855447	1.540261	0.194629	8519.775391
9061.856345	1.497803	0.194629	9864.802734
9061.857208	1.457699	0.194629	11122.796875
9061.858284	1.412970	0.194629	12643.152344
9061.859215	1.374056	0.194629	13922.398437
9061.860092	1.064597	0.194629	14856.049805
9061.861089	0.128335	0.194629	14984.000000
9061.862103	0.090527	0.194629	15075.794922
9061.862977	0.090667	0.194629	15155.037109
9061.863951	0.090667	0.194629	15243.346680
9061.865007	0.090546	0.194629	15338.962891
9061.865907	0.090549	0.194629	15420.457031
9061.866771	0.090535	0.194629	15498.678711
9061.867754	0.090674	0.194629	15587.811523
9061.868763	0.090575	0.194629	15679.201172
9061.869654	0.090546	0.194629	15759.876953
9062.891052	1.298818	0.173206	676.684387
9062.892054	1.720367	0.173206	2400.492432
9062.892933	1.688331	0.173206	3884.535645
9062.893945	1.636388	0.173206	5540.560547
9062.895007	1.582141	0.173206	7220.794434
9062.895903	1.537456	0.173206	8598.355469
9062.896767	1.494697	0.173206	9889.773437
9062.897872	1.447233	0.173206	11488.965820
9062.898843	1.406162	0.173206	12854.349609
9062.899711	1.369746	0.173206	14043.289062
9062.900775	0.687946	0.173206	14775.262695
9062.901815	0.092010	0.173206	14870.953125
9062.902701	0.090579	0.173206	14951.206055
9062.903619	0.090593	0.173206	15034.371094
9062.904676	0.090681	0.173206	15130.220703
9062.905621	0.090619	0.173206	15215.855469
9062.906482	0.090593	0.173206	15293.856445
9062.907510	0.090615	0.173206	15387.008789
9062.908534	0.090601	0.173206	15479.784180
9062.909422	0.090516	0.173206	15560.163086
9062.910356	0.090725	0.173206	15644.900391
9063.890360	1.199429	0.204248	503.760040
9063.891428	1.718551	0.204248	2339.172607
9063.892355	1.687456	0.204248	3903.444336
9063.893235	1.641504	0.204248	5347.967773
9063.894214	1.592069	0.204248	6906.603516
9063.895235	1.541528	0.204248	8480.503906
9063.896127	1.499099	0.204248	9817.700195
9063.896994	1.458812	0.204248	11082.490234
9063.898087	1.413234	0.204248	12627.154297
9063.899030	1.373478	0.204248	13922.343750
9063.899907	1.061345	0.204248	14853.143555
9063.900910	0.126442	0.204248	14979.964844
9063.901912	0.090494	0.204248	15070.640625
9063.902791	0.090597	0.204248	15150.275391
9063.903646	0.090659	0.204248	15227.789062
9063.904725	0.090692	0.204248	15325.645508
9063.905642	0.090582	0.204248	15408.708984
9063.906508	0.090623	0.204248	15487.188477
9063.907461	0.090637	0.204248	15573.565430
9063.908477	0.090564	0.204248	15665.578125
9063.909370	0.090601	0.204248	15746.484375
9064.928728	1.220292	0.190459	543.029846
9064.929601	1.715936	0.190459	2041.042236
9064.930538	1.695725	0.190459	3629.936523
9064.931605	1.641072	0.190459	5380.959961
9064.932484	1.594526	0.190459	6782.548828
9064.933356	1.551694	0.190459	8135.625977
9064.934382	1.502842	0.190459	9677.541992
9064.935352	1.459017	0.190459	11092.789062
9064.936227	1.421221	0.190459	12336.357422
9064.937119	1.383157	0.190459	13570.132812
9064.938218	1.088701	0.190459	14766.615234
9064.939121	0.129983	0.190459	14883.990234
9064.939985	0.090494	0.190459	14962.177734
9064.941035	0.090740	0.190459	15057.454102
9064.942006	0.090535	0.190459	15145.363281
9064.942878	0.090582	0.190459	15224.350586
9064.943749	0.090630	0.190459	15303.289062
9064.944869	0.090619	0.190459	15404.782227
9064.945745	0.090615	0.190459	15484.161133
9064.946600	0.090538	0.190459	15561.571289
9064.947661	0.090696	0.190459	15657.799805
9065.929148	1.190262	0.199197	504.671265
9065.930091	1.713021	0.199197	2120.050293
9065.931157	1.686786	0.199197	3918.164062
9065.932091	1.637754	0.199197	5447.826172
9065.932959	1.592172	0.199197	6829.831055
9065.934009	1.541338	0.199197	8448.236328
9065.935029	1.493529	0.199197	9971.635742
9065.935924	1.453206	0.199197	11272.254883
9065.936891	1.412498	0.199197	12638.139648
9065.937960	1.368003	0.199197	14100.535156
9065.938883	0.817603	0.199197	14855.182617
9065.939743	0.100122	0.199197	14941.287109
9065.940845	0.090703	0.199197	15041.242187
9065.941829	0.090557	0.199197	15130.349609
9065.942722	0.090575	0.199197	15211.233398
9065.943714	0.090784	0.199197	15301.291016
9065.944758	0.090696	0.199197	15395.977539
9065.945653	0.090674	0.199197	15477.130859
9065.946513	0.090656	0.199197	15555.094727
9065.947619	0.090648	0.199197	15655.351562
9065.948575	0.090593	0.199197	15741.958984
9066.967583	1.286349	0.195483	658.610596
9066.968533	1.720397	0.195483	2292.987549
9066.969400	1.691653	0.195483	3759.650635
9066.970458	1.636930	0.195483	5491.522461
9066.971476	1.584862	0.195483	7104.912109
9066.972363	1.541506	0.195483	8472.228516
9066.973332	1.496283	0.195483	9922.126953
9066.974400	1.447852	0.195483	11468.432617
9066.975326	1.408506	0.195483	12772.708984
9066.976190	1.371643	0.195483	13957.808594
9066.977240	0.770380	0.195483	14766.707031
9066.978276	0.093138	0.195483	14863.198242
9066.979154	0.090579	0.195483	14942.726562
9066.980125	0.090718	0.195483	15030.813477
9066.981179	0.090656	0.195483	15126.364258
9066.982090	0.090571	0.195483	15208.875000
9066.982951	0.090612	0.195483	15286.891602
9066.984053	0.090674	0.195483	15386.814453
9066.985045	0.090623	0.195483	15476.711914
9066.985938	0.090597	0.195483	15557.615234
9066.986921	0.090703	0.195483	15646.776367
9067.968958	1.190116	0.156601	504.609161
9067.969906	1.713124	0.156601	2128.650635
9067.970993	1.686141	0.156601	3961.486328
9067.971907	1.637325	0.156601	5458.001953
9067.972781	1.591388	0.156601	6848.875000
9067.973845	1.540067	0.156601	8487.505859
9067.974857	1.492302	0.156601	9997.715820
9067.975752	1.452316	0.156601	11297.538086
9067.976731	1.411124	0.156601	12679.028320
9067.977782	1.367186	0.156601	14115.941406
9067.978701	0.805331	0.156601	14856.040039
9067.979562	0.099423	0.156601	14941.642578
9067.980684	0.090645	0.156601	15043.345703
9067.981646	0.090597	0.156601	15130.500000
9067.982520	0.090575	0.156601	15209.662109
9067.983527	0.090626	0.156601	15300.922852
9067.984584	0.090641	0.156601	15396.730469
9067.985472	0.090516	0.156601	15477.109375
9067.986358	0.090590	0.156601	15557.372070
9067.987462	0.090714	0.156601	15657.520508
9067.988408	0.090487	0.156601	15743.121094
9069.014537	1.269240	0.177746	635.889038
9069.015419	1.718547	0.177746	2151.647949
9069.016349	1.692499	0.177746	3725.671875
9069.017422	1.636783	0.177746	5481.940430
9069.018367	1.588370	0.177746	6982.950195
9069.019232	1.545751	0.177746	8320.024414
9069.020299	1.495719	0.177746	9915.957031
9069.021326	1.449694	0.177746	11404.791992
9069.022206	1.411787	0.177746	12647.164062
9069.023188	1.372024	0.177746	13994.491211
9069.024244	0.753314	0.177746	14789.991211
9069.025166	0.095219	0.177746	14877.782227
9069.026023	0.090568	0.177746	14955.398437
9069.027069	0.090667	0.177746	15050.235352
9069.028091	0.090623	0.177746	15142.851562
9069.028978	0.090568	0.177746	15223.184570
9069.029952	0.090710	0.177746	15311.536133
9069.031003	0.090623	0.177746	15406.780273
9069.031914	0.090579	0.177746	15489.297852
9069.032774	0.090667	0.177746	15567.271484
9069.033857	0.090721	0.177746	15665.522461
9070.003757	1.290037	0.130917	674.689209
9070.004769	1.720078	0.130917	2415.408203
9070.005653	1.687196	0.130917	3906.889648
9070.006660	1.635212	0.130917	5553.548340
9070.007715	1.581910	0.130917	7222.463867
9070.008588	1.537932	0.130917	8565.078125
9070.009465	1.494727	0.130917	9875.953125
9070.010566	1.447093	0.130917	11469.203125
9070.011526	1.406752	0.130917	12819.684570
9070.012395	1.370339	0.130917	14010.509766
9070.013413	0.766414	0.130917	14790.718750
9070.014461	0.092820	0.130917	14887.994141
9070.015346	0.090597	0.130917	14968.172852
9070.016274	0.090560	0.130917	15052.212891
9070.017339	0.090681	0.130917	15148.788086
9070.018285	0.090516	0.130917	15234.416992
9070.019147	0.090615	0.130917	15312.527344
9070.020206	0.090743	0.130917	15408.625000
9070.021230	0.090516	0.130917	15501.313477
9070.022115	0.090641	0.130917	15581.530273
9070.023065	0.090652	0.130917	15667.649414
9071.059420	1.215612	0.183329	560.396912
9071.060491	1.718328	0.183329	2400.725830
9071.061444	1.684109	0.183329	4005.681641
9071.062316	1.637798	0.183329	5433.841309
9071.063352	1.584833	0.183329	7075.728027
9071.064395	1.534644	0.183329	8676.361328
9071.065287	1.492269	0.183329	10007.465820
9071.066246	1.449877	0.183329	11397.897461
9071.067305	1.404646	0.183329	12885.417969
9071.068255	1.365121	0.183329	14182.283203
9071.069126	0.794352	0.183329	14874.164062
9071.070204	0.093076	0.183329	14974.500000
9071.071200	0.090502	0.183329	15064.639648
9071.072085	0.090542	0.183329	15144.769531
9071.073071	0.090677	0.183329	15234.177734
9071.074101	0.090527	0.183329	15327.420898
9071.075009	0.090520	0.183329	15409.613281
9071.075865	0.090509	0.183329	15487.088867
9071.076964	0.090571	0.183329	15586.626953
9071.077966	0.090542	0.183329	15677.349609
9071.078848	0.090560	0.183329	15757.223633
9072.033312	1.280933	0.139763	654.556580
9072.034343	1.719382	0.139763	2427.239746
9072.035230	1.686606	0.139763	3923.259766
9072.036192	1.636655	0.139763	5497.722168
9072.037271	1.581665	0.139763	7204.338867
9072.038187	1.536672	0.139763	8611.930664
9072.039051	1.494470	0.139763	9903.153320
9072.040090	1.448613	0.139763	11408.262695
9072.041103	1.405481	0.139763	12832.014648
9072.042001	1.368468	0.139763	14060.898437
9072.042981	0.771877	0.139763	14817.337891
9072.044039	0.093062	0.139763	14915.796875
9072.044941	0.090549	0.139763	14997.472656
9072.045801	0.090494	0.139763	15075.297852
9072.046909	0.090630	0.139763	15175.715820
9072.047889	0.090524	0.139763	15264.428711
9072.048769	0.090538	0.139763	15344.102539
9072.049779	0.090604	0.139763	15435.613281
9072.050834	0.090597	0.139763	15531.193359
9072.051722	0.090535	0.139763	15611.587891
9072.052599	0.090582	0.139763	15691.028320
9073.103393	1.288429	0.178318	662.252441
9073.104389	1.720019	0.178318	2375.391846
9073.105270	1.688156	0.178318	3862.656738
9073.106256	1.636337	0.178318	5476.084473
9073.107317	1.582603	0.178318	7155.225586
9073.108227	1.537932	0.178318	8554.744141
9073.109092	1.495532	0.178318	9848.379883
9073.110192	1.447537	0.178318	11440.669922
9073.111159	1.407111	0.178318	12801.345703
9073.112035	1.370526	0.178318	14001.926758
9073.113096	0.726068	0.178318	14772.285156
9073.114144	0.092216	0.178318	14868.926758
9073.115035	0.090542	0.178318	14949.599609
9073.115943	0.090619	0.178318	15031.881836
9073.117031	0.090648	0.178318	15130.506836
9073.117977	0.090579	0.178318	15216.194336
9073.118841	0.090568	0.178318	15294.444336
9073.119890	0.090718	0.178318	15389.607422
9073.120910	0.090677	0.178318	15482.098633
9073.121785	0.090590	0.178318	15561.364258
9073.122757	0.090776	0.178318	15649.598633
9074.067927	1.215494	0.147284	537.248474
9074.068788	1.714936	0.147284	2013.808838
9074.069871	1.689166	0.147284	3843.175781
9074.070879	1.636084	0.147284	5492.348633
9074.071752	1.590663	0.147284	6880.997070
9074.072720	1.543792	0.147284	8375.387695
9074.073785	1.493324	0.147284	9965.777344
9074.074700	1.451953	0.147284	11294.314453
9074.075571	1.413911	0.147284	12525.831055
9074.076652	1.370039	0.147284	14006.843750
9074.077647	0.789778	0.147284	14792.672852
9074.078542	0.097203	0.147284	14879.669922
9074.079529	0.090670	0.147284	14969.161133
9074.080577	0.090707	0.147284	15064.221680
9074.081474	0.090608	0.147284	15145.497070
9074.082335	0.090612	0.147284	15223.513672
9074.083447	0.090645	0.147284	15324.310547
9074.084407	0.090560	0.147284	15411.248047
9074.085275	0.090590	0.147284	15489.879883
9074.086361	0.090630	0.147284	15588.303711
9074.087376	0.090634	0.147284	15680.296875
9075.143197	1.286019	0.140117	655.869873
9075.144202	1.719825	0.140117	2384.294434
9075.145082	1.687917	0.140117	3869.661865
9075.146083	1.635820	0.140117	5507.118164
9075.147143	1.582229	0.140117	7184.280762
9075.148028	1.538379	0.140117	8545.746094
9075.148902	1.495071	0.140117	9852.437500
9075.150010	1.447101	0.140117	11455.825195
9075.150982	1.406316	0.140117	12822.764648
9075.151852	1.369988	0.140117	14014.654297
9075.152878	0.754955	0.140117	14789.238281
9075.153921	0.092974	0.140117	14886.209961
9075.154804	0.090546	0.140117	14966.162109
9075.155715	0.090564	0.140117	15048.666016
9075.156805	0.090612	0.140117	15147.432617
9075.157747	0.090568	0.140117	15232.747070
9075.158609	0.090634	0.140117	15310.873047
9075.159650	0.090630	0.140117	15405.218750
9075.160667	0.090670	0.140117	15497.430664
9075.161564	0.090623	0.140117	15578.718750
9075.162527	0.090688	0.140117	15666.051758
9076.113906	1.254602	0.140536	592.172180
9076.114786	1.717170	0.140536	2103.281982
9076.115735	1.693337	0.140536	3710.259277
9076.116794	1.638040	0.140536	5444.943359
9076.117727	1.589927	0.140536	6928.344727
9076.118589	1.546549	0.140536	8261.469727
9076.119662	1.496949	0.140536	9867.696289
9076.120677	1.451155	0.140536	11340.618164
9076.121556	1.413563	0.140536	12583.140625
9076.122528	1.373232	0.140536	13917.922852
9076.123601	0.797062	0.140536	14773.169922
9076.124507	0.096694	0.140536	14860.775391
9076.125414	0.090542	0.140536	14942.896484
9076.126296	0.090590	0.140536	15022.796875
9076.127249	0.090637	0.140536	15109.173828
9076.128168	0.090549	0.140536	15192.388672
9076.129042	0.090615	0.140536	15271.585937
9076.129933	0.090601	0.140536	15352.311523
9076.130930	0.090608	0.140536	15442.647461
9076.131857	0.090579	0.140536	15526.614258
9076.132731	0.090535	0.140536	15605.741211
9077.169592	1.185729	0.141112	499.191833
9077.170557	1.715925	0.141112	2155.059814
9077.171459	1.693132	0.141112	3682.265137
9077.172378	1.645540	0.141112	5194.516113
9077.173254	1.599719	0.141112	6595.870117
9077.174244	1.552207	0.141112	8132.555176
9077.175168	1.507584	0.141112	9525.562500
9077.176061	1.466462	0.141112	10835.113281
9077.177078	1.423561	0.141112	12282.875000
9077.177977	1.385332	0.141112	13528.288086
9077.178899	1.295211	0.141112	14722.472656
9077.179772	0.249045	0.141112	14939.889648
9077.180747	0.090480	0.141112	15028.107422
9077.181658	0.090568	0.141112	15110.614258
9077.182538	0.090597	0.141112	15190.339844
9077.183529	0.090593	0.141112	15280.118164
9077.184452	0.090590	0.141112	15363.732422
9077.185370	0.090601	0.141112	15446.903320
9077.186236	0.090645	0.141112	15525.401367
9077.187274	0.090560	0.141112	15619.403320
9077.188164	0.090575	0.141112	15700.014648
9078.164930	1.201384	0.138579	515.393860
9078.165948	1.717090	0.138579	2263.391357
9078.166996	1.683230	0.138579	4027.416260
9078.167890	1.635974	0.138579	5489.977051
9078.168813	1.588817	0.138579	6956.455078
9078.169880	1.536724	0.138579	8596.138672
9078.170827	1.492167	0.138579	10009.220703
9078.171693	1.452737	0.138579	11267.291016
9078.172765	1.407590	0.138579	12776.227539
9078.173778	1.365623	0.138579	14159.603516
9078.174674	0.798380	0.138579	14874.952148
9078.175654	0.098635	0.138579	14971.614258
9078.176700	0.090688	0.138579	15066.474609
9078.177608	0.090648	0.138579	15148.783203
9078.178463	0.090699	0.138579	15226.331055
9078.179563	0.090784	0.138579	15326.193359
9078.180554	0.090538	0.138579	15415.916992
9078.181429	0.090604	0.138579	15495.195312
9078.182412	0.090656	0.138579	15584.309570
9078.183489	0.090784	0.138579	15682.083984
9078.184370	0.090663	0.138579	15761.958008
9079.201217	1.199769	0.153975	513.501282
9079.202185	1.713146	0.153975	2171.826416
9079.203242	1.684801	0.153975	3952.661133
9079.204165	1.636263	0.153975	5462.932617
9079.205034	1.590853	0.153975	6845.384277
9079.206103	1.539613	0.153975	8491.230469
9079.207099	1.492291	0.153975	9977.552734
9079.207992	1.452488	0.153975	11274.624023
9079.208973	1.411000	0.153975	12658.814453
9079.210026	1.367725	0.153975	14099.028320
9079.210939	0.829772	0.153975	14856.609375
9079.211799	0.100822	0.153975	14943.315430
9079.212912	0.090674	0.153975	15044.235352
9079.213883	0.090582	0.153975	15132.190430
9079.214753	0.090579	0.153975	15210.994141
9079.215840	0.090696	0.153975	15309.580078
9079.216875	0.090568	0.153975	15403.317383
9079.217765	0.090645	0.153975	15483.991211
9079.218684	0.090564	0.153975	15567.219727
9079.219550	0.090630	0.153975	15645.705078
9079.220529	0.090535	0.153975	15734.338867
9080.202761	1.271580	0.145926	637.061401
9080.203749	1.719657	0.145926	2336.082520
9080.204648	1.688350	0.145926	3853.908691
9080.205629	1.637369	0.145926	5460.167969
9080.206690	1.583705	0.145926	7140.478516
9080.207585	1.539100	0.145926	8517.973633
9080.208477	1.495741	0.145926	9852.174805
9080.209578	1.447753	0.145926	11446.150391
9080.210547	1.406763	0.145926	12809.303711
9080.211418	1.370160	0.145926	14002.712891
9080.212475	0.740413	0.145926	14785.329102
9080.213498	0.092842	0.145926	14880.306641
9080.214379	0.090604	0.145926	14960.128906
9080.215323	0.090677	0.145926	15045.728516
9080.216369	0.090681	0.145926	15140.581055
9080.217298	0.090531	0.145926	15224.684570
9080.218157	0.090560	0.145926	15302.475586
9080.219216	0.090688	0.145926	15398.514648
9080.220231	0.090601	0.145926	15490.474609
9080.221101	0.090560	0.145926	15569.261719
9080.222051	0.090674	0.145926	15655.402344
9081.247177	1.202582	0.147457	523.123047
9081.248040	1.714091	0.147457	2002.383179
9081.249117	1.689613	0.147457	3822.096191
9081.250130	1.636560	0.147457	5479.931641
9081.251003	1.591036	0.147457	6868.906250
9081.251970	1.544363	0.147457	8362.304687
9081.253027	1.493906	0.147457	9941.363281
9081.253949	1.451949	0.147457	11280.060547
9081.254823	1.413977	0.147457	12515.876953
9081.255907	1.369823	0.147457	14000.764648
9081.256907	0.795857	0.147457	14796.621094
9081.257802	0.097430	0.147457	14883.821289
9081.258793	0.090608	0.147457	14973.613281
9081.259854	0.090637	0.147457	15069.779297
9081.260757	0.090641	0.147457	15151.627930
9081.261620	0.090685	0.147457	15229.888672
9081.262723	0.090652	0.147457	15329.877930
9081.263692	0.090634	0.147457	15417.702148
9081.264560	0.090608	0.147457	15496.349609
9081.265612	0.090667	0.147457	15591.730469
9081.266641	0.090604	0.147457	15684.961914
9082.230208	1.205779	0.134860	519.690613
9082.231088	1.714830	0.134860	2028.741211
9082.232106	1.691854	0.134860	3751.048828
9082.233154	1.637882	0.134860	5467.549316
9082.234044	1.590769	0.134860	6883.333984
9082.234934	1.545901	0.134860	8259.185547
9082.236041	1.495020	0.134860	9914.171875
9082.237001	1.451796	0.134860	11307.895508
9082.237872	1.414706	0.134860	12540.104492
9082.238915	1.371654	0.134860	13970.739258
9082.239941	0.808011	0.134860	14799.758789
9082.240817	0.099075	0.134860	14886.547852
9082.241757	0.090652	0.134860	14971.760742
9082.242820	0.090670	0.134860	15068.143555
9082.243732	0.090582	0.134860	15150.754883
9082.244597	0.090582	0.134860	15229.108398
9082.245624	0.090714	0.134860	15322.271484
9082.246655	0.090637	0.134860	15415.718750
9082.247542	0.090590	0.134860	15496.071289
9082.248491	0.090652	0.134860	15582.099609
9082.249536	0.090718	0.134860	15676.899414
9083.297233	1.235984	0.140730	543.832947
9083.298154	1.717123	0.140730	2125.302979
9083.299020	1.694198	0.140730	3592.478516
9083.300070	1.641515	0.140730	5316.069336
9083.300960	1.595775	0.140730	6736.309082
9083.301829	1.552668	0.140730	8085.578125
9083.302821	1.505815	0.140730	9579.346680
9083.303750	1.462361	0.140730	10937.879883
9083.304661	1.423660	0.140730	12234.833984
9083.305540	1.385958	0.140730	13453.090820
9083.306585	1.227407	0.140730	14735.731445
9083.307487	0.185072	0.140730	14902.666016
9083.308357	0.090454	0.140730	14981.361328
9083.309321	0.090623	0.140730	15068.721680
9083.310287	0.090564	0.140730	15156.206055
9083.311206	0.090645	0.140730	15239.508789
9083.312073	0.090593	0.140730	15318.052734
9083.313107	0.090509	0.140730	15411.638672
9083.313989	0.090608	0.140730	15491.554687
9083.314852	0.090597	0.140730	15569.740234
9083.315773	0.090623	0.140730	15653.203125
9084.261832	1.212554	0.148730	529.885925
9084.262699	1.713574	0.148730	2015.554932
9084.263702	1.692144	0.148730	3712.774902
9084.264635	1.643760	0.148730	5246.402832
9084.265504	1.597764	0.148730	6634.859375
9084.266552	1.547150	0.148730	8256.272461
9084.267431	1.505160	0.148730	9579.307617
9084.268359	1.463181	0.148730	10937.139648
9084.269225	1.424484	0.148730	12170.742187
9084.270196	1.384380	0.148730	13514.974609
9084.271128	1.277758	0.148730	14705.844727
9084.272011	0.231896	0.148730	14910.608398
9084.273029	0.090502	0.148730	15002.739258
9084.273932	0.090604	0.148730	15084.554687
9084.274841	0.090571	0.148730	15166.883789
9084.275710	0.090535	0.148730	15245.558594
9084.276673	0.090582	0.148730	15332.789062
9084.277603	0.090571	0.148730	15417.020508
9084.278473	0.090560	0.148730	15495.807617
9084.279470	0.090590	0.148730	15586.125000
9084.280374	0.090608	0.148730	15668.034180
9085.334968	1.186479	0.138973	498.321381
9085.335953	1.714318	0.138973	2186.924072
9085.336889	1.690309	0.138973	3769.053223
9085.337819	1.642170	0.138973	5296.271484
9085.338684	1.596141	0.138973	6676.933594
9085.339746	1.545579	0.138973	8318.337891
9085.340630	1.503303	0.138973	9647.257812
9085.341500	1.463225	0.138973	10920.263672
9085.342467	1.422264	0.138973	12295.593750
9085.343414	1.382073	0.138973	13604.416992
9085.344333	1.236013	0.138973	14740.313477
9085.345218	0.198622	0.138973	14916.093750
9085.346244	0.090520	0.138973	15008.966797
9085.347143	0.090648	0.138973	15090.459961
9085.348022	0.090608	0.138973	15170.104492
9085.348944	0.090637	0.138973	15253.671875
9085.349944	0.090612	0.138973	15344.283203
9085.350853	0.090549	0.138973	15426.592773
9085.351732	0.090575	0.138973	15506.208008
9085.352757	0.090612	0.138973	15599.084961
9085.353652	0.090571	0.138973	15680.146484
9086.308878	1.241986	0.132274	630.928955
9086.309860	1.719844	0.132274	2319.815430
9086.310771	1.687694	0.132274	3857.304687
9086.311654	1.640999	0.132274	5306.306641
9086.312697	1.588293	0.132274	6962.896484
9086.313613	1.543198	0.132274	8376.465820
9086.314486	1.501586	0.132274	9687.349609
9086.315350	1.460222	0.132274	10948.981445
9086.316392	1.417401	0.132274	12425.913086
9086.317272	1.380857	0.132274	13641.067383
9086.318145	1.260623	0.132274	14741.590820
9086.319155	0.190195	0.132274	14933.688477
9086.320075	0.090575	0.132274	15017.017578
9086.320988	0.090667	0.132274	15099.795898
9086.321866	0.090641	0.132274	15179.378906
9086.322886	0.090637	0.132274	15271.829102
9086.323783	0.090560	0.132274	15353.061523
9086.324656	0.090623	0.132274	15432.174805
9086.325596	0.090699	0.132274	15517.432617
9086.326589	0.090568	0.132274	15607.366211
9086.327508	0.090630	0.132274	15690.655273
9087.362598	1.303411	0.135312	696.021301
9087.363507	1.718939	0.135312	2258.537109
9087.364438	1.689075	0.135312	3831.065430
9087.365307	1.641152	0.135312	5257.226562
9087.366360	1.589165	0.135312	6930.617187
9087.367245	1.545974	0.135312	8298.804687
9087.368116	1.504871	0.135312	9609.546875
9087.369131	1.459438	0.135312	11090.876953
9087.370034	1.419086	0.135312	12372.311523
9087.370953	1.381370	0.135312	13641.790039
9087.371831	1.187142	0.135312	14684.101562
9087.372875	0.140999	0.135312	14831.303711
9087.373768	0.090498	0.135312	14912.118164
9087.374646	0.090637	0.135312	14991.697266
9087.375611	0.090597	0.135312	15079.123047
9087.376561	0.090538	0.135312	15165.134766
9087.377432	0.090615	0.135312	15244.060547
9087.378368	0.090688	0.135312	15328.945312
9087.379404	0.090524	0.135312	15422.727539
9087.380287	0.090549	0.135312	15502.682617
9087.381149	0.090637	0.135312	15580.811523
9088.356814	1.206969	0.139038	533.480286
9088.357686	1.714427	0.139038	2028.460937
9088.358601	1.695135	0.139038	3579.509766
9088.359598	1.642833	0.139038	5217.414551
9088.360516	1.596566	0.139038	6683.062500
9088.361390	1.551676	0.139038	8039.227539
9088.362500	1.501732	0.139038	9706.150391
9088.363407	1.459819	0.139038	11030.207031
9088.364285	1.421840	0.139038	12278.582031
9088.365154	1.384003	0.139038	13481.280273
9088.366209	1.195276	0.139038	14742.296875
9088.367111	0.165681	0.139038	14891.741211
9088.367982	0.090505	0.139038	14970.571289
9088.368983	0.090656	0.139038	15061.317383
9088.369909	0.090571	0.139038	15145.186523
9088.370829	0.090560	0.139038	15228.501953
9088.371683	0.090560	0.139038	15305.840820
9088.372697	0.090667	0.139038	15397.776367
9088.373593	0.090568	0.139038	15478.924805
9088.374464	0.090579	0.139038	15557.818359
9088.375420	0.090630	0.139038	15644.460937
9089.391036	1.199092	0.160323	510.813110
9089.392091	1.717471	0.160323	2322.744629
9089.393043	1.686127	0.160323	3927.937256
9089.393920	1.640002	0.160323	5366.219238
9089.394885	1.591249	0.160323	6901.774414
9089.395907	1.540858	0.160323	8476.531250
9089.396791	1.498883	0.160323	9801.543945
9089.397652	1.458845	0.160323	11057.609375
9089.398729	1.414358	0.160323	12580.873047
9089.399662	1.374613	0.160323	13863.386719
9089.400548	1.094887	0.160323	14833.456055
9089.401488	0.138168	0.160323	14963.333984
9089.402550	0.090546	0.160323	15059.493164
9089.403446	0.090612	0.160323	15140.680664
9089.404310	0.090568	0.160323	15218.930664
9089.405369	0.090696	0.160323	15314.977539
9089.406319	0.090608	0.160323	15401.054687
9089.407180	0.090593	0.160323	15479.055664
9089.408222	0.090696	0.160323	15573.560547
9089.409232	0.090586	0.160323	15665.052734
9089.410117	0.090575	0.160323	15745.211914
9090.398751	1.287784	0.140589	656.770081
9090.399672	1.718785	0.140589	2239.771484
9090.400537	1.691305	0.140589	3702.750244
9090.401630	1.635355	0.140589	5490.193359
9090.402642	1.583877	0.140589	7093.077148
9090.403519	1.540818	0.140589	8444.374023
9090.404524	1.493873	0.140589	9945.716797
9090.405606	1.445815	0.140589	11510.088867
9090.406504	1.407151	0.140589	12773.709961
9090.407367	1.369332	0.140589	13955.443359
9090.408494	0.697299	0.140589	14741.298828
9090.409451	0.092501	0.140589	14829.822266
9090.410315	0.090461	0.140589	14907.980469
9090.411340	0.090699	0.140589	15000.947266
9090.412380	0.090612	0.140589	15095.183594
9090.413271	0.090575	0.140589	15175.885742
9090.414178	0.090582	0.140589	15258.043945
9090.415259	0.090667	0.140589	15356.054687
9090.416204	0.090520	0.140589	15441.595703
9090.417073	0.090608	0.140589	15520.333984
9090.418137	0.090656	0.140589	15616.791016
9091.433911	1.209393	0.146821	511.573364
9091.435019	1.717646	0.146821	2414.725586
9091.435993	1.682373	0.146821	4053.356934
9091.436863	1.636256	0.146821	5476.899902
9091.437949	1.581123	0.146821	7193.999512
9091.438985	1.531139	0.146821	8780.259766
9091.439884	1.488457	0.146821	10118.382812
9091.440822	1.447009	0.146821	11475.677734
9091.441886	1.401947	0.146821	12967.349609
9091.442834	1.362561	0.146821	14259.057617
9091.443705	0.729576	0.146821	14894.518555
9091.444763	0.092871	0.146821	14992.776367
9091.445784	0.090619	0.146821	15085.297852
9091.446660	0.090586	0.146821	15164.651367
9091.447627	0.090659	0.146821	15252.318359
9091.448675	0.090637	0.146821	15347.306641
9091.449591	0.090604	0.146821	15430.299805
9091.450449	0.090568	0.146821	15508.006836
9091.451514	0.090612	0.146821	15604.507812
9091.452519	0.090590	0.146821	15695.550781
9091.453386	0.090571	0.146821	15774.076172
9092.433338	1.189515	0.113027	504.354523
9092.434356	1.713805	0.113027	2249.007812
9092.435413	1.683252	0.113027	4028.205078
9092.436309	1.635161	0.113027	5493.309570
9092.437168	1.589220	0.113027	6858.449707
9092.438277	1.537797	0.113027	8563.866211
9092.439247	1.491768	0.113027	10010.880859
9092.440116	1.452480	0.113027	11273.085937
9092.441189	1.407528	0.113027	12783.363281
9092.442222	1.364839	0.113027	14193.242187
9092.443125	0.756196	0.113027	14876.087891
9092.444053	0.096705	0.113027	14965.830078
9092.445140	0.090564	0.113027	15064.273437
9092.446065	0.090601	0.113027	15148.079102
9092.446932	0.090557	0.113027	15226.591797
9092.447963	0.090736	0.113027	15320.140625
9092.448988	0.090579	0.113027	15412.983398
9092.449880	0.090593	0.113027	15493.792969
9092.450844	0.090656	0.113027	15581.184570
9092.451888	0.090601	0.113027	15675.771484
9092.452817	0.090527	0.113027	15759.871094
9093.479868	1.188845	0.137128	500.503815
9093.480852	1.713124	0.137128	2186.217773
9093.481913	1.684025	0.137128	3972.968018
9093.482827	1.635703	0.137128	5468.000488
9093.483696	1.589546	0.137128	6849.315918
9093.484808	1.537266	0.137128	8558.755859
9093.485783	1.491401	0.137128	10012.872070
9093.486651	1.452180	0.137128	11273.364258
9093.487725	1.406660	0.137128	12784.117187
9093.488769	1.363953	0.137128	14208.083984
9093.489667	0.731137	0.137128	14864.644531
9093.490583	0.096464	0.137128	14953.004883
9093.491646	0.090571	0.137128	15049.282227
9093.492592	0.090623	0.137128	15135.010742
9093.493455	0.090582	0.137128	15213.183594
9093.494507	0.090699	0.137128	15308.599609
9093.495531	0.090568	0.137128	15401.340820
9093.496416	0.090549	0.137128	15481.476562
9093.497387	0.090601	0.137128	15569.450195
9093.498442	0.090648	0.137128	15665.083984
9093.499367	0.090480	0.137128	15748.777344
9094.465056	1.286752	0.122949	656.243347
9094.465974	1.718646	0.122949	2233.960449
9094.466847	1.692294	0.122949	3711.332764
9094.467850	1.640713	0.122949	5356.967773
9094.468855	1.588158	0.122949	6953.066406
9094.469743	1.544883	0.122949	8324.921875
9094.470605	1.502523	0.122949	9620.096680
9094.471678	1.454868	0.122949	11181.169922
9094.472604	1.415303	0.122949	12491.740234
9094.473486	1.378707	0.122949	13707.759766
9094.474474	1.053402	0.122949	14748.521484
9094.475487	0.111292	0.122949	14861.259766
9094.476371	0.090520	0.122949	14941.279297
9094.477230	0.090626	0.122949	15019.126953
9094.478316	0.090630	0.122949	15117.550781
9094.479250	0.090582	0.122949	15202.154297
9094.480127	0.090604	0.122949	15281.614258
9094.481078	0.090645	0.122949	15367.817383
9094.482095	0.090601	0.122949	15459.958008
9094.482977	0.090641	0.122949	15539.903320
9094.483834	0.090645	0.122949	15617.585937
9095.522757	1.199418	0.137322	516.949036
9095.523629	1.714244	0.137322	2011.770020
9095.524536	1.695754	0.137322	3549.819336
9095.525552	1.642811	0.137322	5218.915527
9095.526480	1.596017	0.137322	6700.019043
9095.527361	1.552797	0.137322	8068.032715
9095.528353	1.506376	0.137322	9562.357422
9095.529280	1.462394	0.137322	10917.996094
9095.530207	1.423414	0.137322	12237.500977
9095.531069	1.386130	0.137322	13432.345703
9095.532112	1.237837	0.137322	14723.409180
9095.533001	0.197413	0.137322	14898.909180
9095.533867	0.090461	0.137322	14977.249023
9095.534848	0.090601	0.137322	15066.127930
9095.535768	0.090557	0.137322	15149.440430
9095.536674	0.090641	0.137322	15231.561523
9095.537551	0.090630	0.137322	15311.043945
9095.538596	0.090652	0.137322	15405.775391
9095.539500	0.090553	0.137322	15487.635742
9095.540374	0.090652	0.137322	15566.865234
9095.541317	0.090677	0.137322	15652.374023
9096.498654	1.238686	0.140665	569.795776
9096.499531	1.715339	0.140665	2074.148437
9096.500457	1.694612	0.140665	3643.358887
9096.501321	1.647949	0.140665	5067.187012
9096.502293	1.598346	0.140665	6620.779297
9096.503225	1.552852	0.140665	8068.037109
9096.504117	1.510561	0.140665	9415.458008
9096.505059	1.468129	0.140665	10798.435547
9096.505999	1.426128	0.140665	12138.996094
9096.506917	1.388060	0.140665	13413.235352
9096.507783	1.307761	0.140665	14545.756836
9096.508834	0.229794	0.140665	14787.270508
9096.509749	0.090454	0.140665	14870.036133
9096.510677	0.090637	0.140665	14954.147461
9096.511541	0.090575	0.140665	15032.404297
9096.512537	0.090615	0.140665	15122.657227
9096.513459	0.090590	0.140665	15206.180664
9096.514327	0.090681	0.140665	15284.891602
9096.515323	0.090601	0.140665	15375.129883
9096.516220	0.090641	0.140665	15456.434570
9096.517143	0.090579	0.140665	15540.039062
9097.565650	1.209935	0.124367	537.211304
9097.566516	1.713823	0.124367	2021.382202
9097.567600	1.687709	0.124367	3850.858398
9097.568616	1.634396	0.124367	5511.404297
9097.569494	1.589345	0.124367	6906.848633
9097.570485	1.541118	0.124367	8434.096680
9097.571550	1.490984	0.124367	10021.994141
9097.572449	1.450071	0.124367	11325.607422
9097.573322	1.411502	0.124367	12557.848633
9097.574433	1.367091	0.124367	14076.686523
9097.575407	0.759628	0.124367	14816.563477
9097.576272	0.096910	0.124367	14900.390625
9097.577319	0.090626	0.124367	14995.276367
9097.578356	0.090557	0.124367	15089.183594
9097.579246	0.090560	0.124367	15169.782227
9097.580162	0.090615	0.124367	15252.786133
9097.581239	0.090663	0.124367	15350.429687
9097.582188	0.090527	0.124367	15436.339844
9097.583051	0.090593	0.124367	15514.521484
9097.584107	0.090659	0.124367	15610.257812
9097.585121	0.090582	0.124367	15702.108398
9098.531356	1.285895	0.153306	659.664001
9098.532270	1.718346	0.153306	2230.232178
9098.533133	1.690946	0.153306	3689.518555
9098.534227	1.635659	0.153306	5478.929687
9098.535227	1.584368	0.153306	7063.297363
9098.536110	1.541268	0.153306	8424.237305
9098.537123	1.494478	0.153306	9938.142578
9098.538193	1.446987	0.153306	11486.418945
9098.539066	1.408444	0.153306	12715.990234
9098.539948	1.370142	0.153306	13924.455078
9098.541076	0.701719	0.153306	14715.994141
9098.542039	0.092717	0.153306	14805.281250
9098.542902	0.090557	0.153306	14883.431641
9098.543934	0.090659	0.153306	14976.992187
9098.544962	0.090535	0.153306	15070.061523
9098.545853	0.090553	0.153306	15150.744141
9098.546800	0.090593	0.153306	15236.536133
9098.547860	0.090648	0.153306	15332.623047
9098.548802	0.090549	0.153306	15417.920898
9098.549664	0.090509	0.153306	15495.939453
9098.550719	0.090575	0.153306	15591.496094
9099.605464	1.224093	0.108515	543.497253
9099.606330	1.713962	0.108515	2027.788818
9099.607427	1.686976	0.108515	3878.401855
9099.608425	1.634469	0.108515	5509.602051
9099.609306	1.589249	0.108515	6909.730469
9099.610318	1.540869	0.108515	8469.089844
9099.611372	1.491068	0.108515	10040.675781
9099.612262	1.449851	0.108515	11331.042969
9099.613134	1.411241	0.108515	12561.645508
9099.614231	1.367183	0.108515	14061.445312
9099.615204	0.774987	0.108515	14815.506836
9099.616069	0.097581	0.108515	14899.914062
9099.617098	0.090593	0.108515	14993.134766
9099.618138	0.090586	0.108515	15087.343750
9099.619027	0.090542	0.108515	15167.835937
9099.619952	0.090571	0.108515	15251.614258
9099.621019	0.090597	0.108515	15348.281250
9099.621960	0.090564	0.108515	15433.501953
9099.622825	0.090553	0.108515	15511.830078
9099.623863	0.090729	0.108515	15606.006836
9099.624881	0.090549	0.108515	15698.186523
9100.568082	1.290952	0.162366	655.803711
9100.568971	1.717518	0.162366	2182.677490
9100.569911	1.690206	0.162366	3771.471436
9100.570981	1.634517	0.162366	5520.404297
9100.571920	1.586532	0.162366	7010.157715
9100.572786	1.543799	0.162366	8347.087891
9100.573844	1.494474	0.162366	9928.241211
9100.574857	1.449001	0.162366	11396.080078
9100.575737	1.411304	0.162366	12638.027344
9100.576721	1.371526	0.162366	13987.608398
9100.577771	0.766560	0.162366	14792.496094
9100.578677	0.095413	0.162366	14878.939453
9100.579541	0.090443	0.162366	14957.082031
9100.580589	0.090615	0.162366	15052.046875
9100.581589	0.090527	0.162366	15142.574219
9100.582476	0.090564	0.162366	15222.904297
9100.583441	0.090685	0.162366	15310.415039
9100.584496	0.090560	0.162366	15405.956055
9100.585409	0.090516	0.162366	15488.597656
9100.586276	0.090524	0.162366	15567.082031
9100.587376	0.090597	0.162366	15666.738281
9101.643299	1.265680	0.097389	667.013367
9101.644351	1.717698	0.097389	2474.031494
9101.645272	1.682238	0.097389	4023.372070
9101.646138	1.635081	0.097389	5439.351562
9101.647238	1.580929	0.097389	7178.373535
9101.648230	1.532142	0.097389	8698.258789
9101.649109	1.491032	0.097389	10008.875000
9101.650121	1.446519	0.097389	11472.751953
9101.651188	1.401987	0.097389	12968.671875
9101.652074	1.364260	0.097389	14177.406250
9101.652946	0.756042	0.097389	14836.675781
9101.654067	0.092531	0.097389	14940.402344
9101.655016	0.090509	0.097389	15026.294922
9101.655873	0.090623	0.097389	15103.958008
9101.656882	0.090648	0.097389	15195.421875
9101.657917	0.090560	0.097389	15289.151367
9101.658807	0.090626	0.097389	15369.808594
9101.659713	0.090630	0.097389	15451.918945
9101.660789	0.090685	0.097389	15549.496094
9101.661739	0.090535	0.097389	15635.503906
9101.662600	0.090546	0.097389	15713.463867
9102.606863	1.278182	0.168888	644.203918
9102.607905	1.718437	0.168888	2434.815674
9102.608800	1.684790	0.168888	3942.702637
9102.609749	1.635582	0.168888	5494.870117
9102.610800	1.581683	0.168888	7157.219238
9102.611731	1.536420	0.168888	8587.625977
9102.612601	1.494562	0.168888	9887.894531
9102.613677	1.447126	0.168888	11445.002930
9102.614682	1.404613	0.168888	12856.638672
9102.615563	1.368014	0.168888	14061.859375
9102.616572	0.746975	0.168888	14815.557617
9102.617619	0.092765	0.168888	14912.682617
9102.618516	0.090538	0.168888	14993.895508
9102.619372	0.090568	0.168888	15071.421875
9102.620455	0.090590	0.168888	15169.530273
9102.621454	0.090461	0.168888	15259.901367
9102.622323	0.090509	0.168888	15338.553711
9102.623296	0.090619	0.168888	15426.725586
9102.624351	0.090571	0.168888	15522.278320
9102.625251	0.090601	0.168888	15603.818359
9102.626110	0.090480	0.168888	15681.540039
9103.681990	1.207668	0.090948	518.089783
9103.682918	1.712424	0.090948	2107.219482
9103.683986	1.685423	0.090948	3907.251953
9103.684924	1.636392	0.090948	5442.187500
9103.685791	1.591487	0.090948	6822.006836
9103.686842	1.540887	0.090948	8441.479492
9103.687867	1.492251	0.090948	9971.037109
9103.688751	1.452425	0.090948	11254.981445
9103.689731	1.412095	0.090948	12638.833984
9103.690776	1.367985	0.090948	14068.377930
9103.691700	0.842025	0.090948	14846.409180
9103.692558	0.101484	0.090948	14933.482422
9103.693617	0.090648	0.090948	15029.478516
9103.694623	0.090560	0.090948	15120.582031
9103.695512	0.090582	0.090948	15201.109375
9103.696489	0.090630	0.090948	15289.654297
9103.697546	0.090630	0.090948	15385.450195
9103.698457	0.090648	0.090948	15468.030273
9103.699318	0.090571	0.090948	15546.011719
9103.700421	0.090626	0.090948	15645.972656
9103.701387	0.090498	0.090948	15733.393555
9104.646700	1.303319	0.158217	682.939209
9104.647720	1.718390	0.158217	2435.696777
9104.648611	1.684797	0.158217	3936.851318
9104.649551	1.635769	0.158217	5474.474121
9104.650619	1.581053	0.158217	7163.039062
9104.651556	1.535812	0.158217	8602.094727
9104.652422	1.493855	0.158217	9895.773437
9104.653493	1.446940	0.158217	11445.446289
9104.654485	1.404906	0.158217	12839.113281
9104.655372	1.368179	0.158217	14052.687500
9104.656354	0.780645	0.158217	14819.280273
9104.657395	0.093834	0.158217	14916.961914
9104.658300	0.090531	0.158217	14998.892578
9104.659158	0.090549	0.158217	15076.583984
9104.660247	0.090688	0.158217	15175.343750
9104.661244	0.090498	0.158217	15265.570312
9104.662123	0.090480	0.158217	15345.101562
9104.663101	0.090579	0.158217	15433.687500
9104.664165	0.090509	0.158217	15529.989258
9104.665047	0.090443	0.158217	15609.759766
9104.665910	0.090516	0.158217	15687.875000
9105.716768	1.298837	0.090110	681.889282
9105.717776	1.719093	0.090110	2414.734863
9105.718668	1.685760	0.090110	3918.433105
9105.719666	1.634019	0.090110	5549.183594
9105.720714	1.580592	0.090110	7205.644043
9105.721620	1.536412	0.090110	8597.633789
9105.722487	1.493503	0.090110	9892.500977
9105.723605	1.445273	0.090110	11508.316406
9105.724568	1.404998	0.090110	12861.329102
9105.725431	1.368735	0.090110	14042.547852
9105.726502	0.687634	0.090110	14779.003906
9105.727533	0.092113	0.090110	14873.972656
9105.728419	0.090579	0.090110	14954.225586
9105.729336	0.090630	0.090110	15037.333008
9105.730424	0.090681	0.090110	15135.994141
9105.731360	0.090542	0.090110	15220.741211
9105.732217	0.090630	0.090110	15298.411133
9105.733251	0.090696	0.090110	15392.190430
9105.734283	0.090612	0.090110	15485.701172
9105.735176	0.090531	0.090110	15566.544922
9105.736129	0.090637	0.090110	15652.921875
9106.688439	1.187424	0.152988	498.718201
9106.689393	1.712128	0.152988	2132.088135
9106.690474	1.684102	0.152988	3952.602051
9106.691408	1.634919	0.152988	5479.616699
9106.692274	1.589513	0.152988	6856.134766
9106.693371	1.537211	0.152988	8542.455078
9106.694367	1.489812	0.152988	10026.307617
9106.695264	1.450071	0.152988	11327.021484
9106.696257	1.408447	0.152988	12725.609375
9106.697320	1.364476	0.152988	14176.047852
9106.698234	0.738593	0.152988	14851.121094
9106.699091	0.096691	0.152988	14933.985352
9106.700175	0.090699	0.152988	15032.303711
9106.701136	0.090454	0.152988	15119.230469
9106.701995	0.090575	0.152988	15197.034180
9106.703076	0.090677	0.152988	15295.056641
9106.704115	0.090604	0.152988	15389.194336
9106.704998	0.090612	0.152988	15469.204102
9106.705909	0.090531	0.152988	15551.677734
9106.706986	0.090597	0.152988	15649.250977
9106.707930	0.090571	0.152988	15734.750000
9107.750465	1.328189	0.099238	730.503723
9107.751389	1.718580	0.099238	2318.471924
9107.752316	1.686570	0.099238	3881.922119
9107.753183	1.639365	0.099238	5303.251953
9107.754229	1.587484	0.099238	6963.760254
9107.755117	1.543813	0.099238	8334.666992
9107.755993	1.502776	0.099238	9651.098633
9107.757000	1.457860	0.099238	11119.164062
9107.757934	1.416987	0.099238	12442.629883
9107.758844	1.378799	0.099238	13697.336914
9107.759722	1.182231	0.099238	14735.335937
9107.760747	0.137758	0.099238	14876.537109
9107.761642	0.090458	0.099238	14957.497070
9107.762514	0.090557	0.099238	15036.462891
9107.763458	0.090623	0.099238	15122.010742
9107.764437	0.090465	0.099238	15210.576172
9107.765348	0.090516	0.099238	15293.036133
9107.766223	0.090568	0.099238	15372.283203
9107.767344	0.090524	0.099238	15473.759766
9107.768234	0.090568	0.099238	15554.365234
9107.769108	0.090601	0.099238	15633.549805
9108.731341	1.222928	0.138289	535.642639
9108.732217	1.714486	0.138289	2037.532471
9108.733231	1.690657	0.138289	3751.858398
9108.734231	1.637780	0.138289	5389.637695
9108.735129	1.591838	0.138289	6819.108398
9108.735994	1.547161	0.138289	8157.402344
9108.737118	1.496719	0.138289	9839.713867
9108.738033	1.455132	0.138289	11171.159180
9108.738898	1.417939	0.138289	12397.676758
9108.739968	1.373928	0.138289	13867.780273
9108.740947	0.973048	0.138289	14820.394531
9108.741824	0.112350	0.138289	14918.925781
9108.742687	0.090421	0.138289	14996.958984
9108.743789	0.090641	0.138289	15096.845703
9108.744684	0.090498	0.138289	15177.841797
9108.745542	0.090524	0.138289	15255.510742
9108.746629	0.090667	0.138289	15354.065430
9108.747599	0.090432	0.138289	15441.784180
9108.748461	0.090491	0.138289	15519.787109
9108.749324	0.090597	0.138289	15597.972656
9108.750442	0.090626	0.138289	15699.292969
9109.779980	1.270913	0.125257	639.269287
9109.780922	1.718489	0.125257	2258.085693
9109.781787	1.691195	0.125257	3720.969482
9109.782842	1.636410	0.125257	5447.381836
9109.783861	1.584349	0.125257	7061.833984
9109.784747	1.541111	0.125257	8427.257812
9109.785711	1.496459	0.125257	9869.843750
9109.786771	1.448357	0.125257	11405.101562
9109.787705	1.408759	0.125257	12720.881836
9109.788568	1.371910	0.125257	13904.840820
9109.789640	0.806342	0.125257	14769.239258
9109.790648	0.094215	0.125257	14864.208008
9109.791520	0.090509	0.125257	14943.131836
9109.792490	0.090645	0.125257	15031.056641
9109.793551	0.090586	0.125257	15127.167969
9109.794460	0.090590	0.125257	15209.513672
9109.795334	0.090564	0.125257	15288.666992
9109.796409	0.090703	0.125257	15386.172852
9109.797395	0.090542	0.125257	15475.447266
9109.798285	0.090531	0.125257	15556.019531
9109.799264	0.090637	0.125257	15644.752930
9110.777309	1.239778	0.123070	557.900024
9110.778190	1.715079	0.123070	2068.884766
9110.779209	1.689928	0.123070	3790.921387
9110.780281	1.634601	0.123070	5543.213379
9110.781154	1.588059	0.123070	6929.588867
9110.782031	1.543099	0.123070	8282.886719
9110.783132	1.492661	0.123070	9926.306641
9110.784095	1.450074	0.123070	11322.728516
9110.784965	1.413076	0.123070	12552.104492
9110.785991	1.370471	0.123070	13958.208008
9110.787044	0.769076	0.123070	14768.044922
9110.787932	0.096240	0.123070	14853.505859
9110.788867	0.090586	0.123070	14938.204102
9110.789935	0.090645	0.123070	15035.012695
9110.790873	0.090480	0.123070	15119.882812
9110.791737	0.090549	0.123070	15198.117187
9110.792796	0.090641	0.123070	15294.105469
9110.793817	0.090498	0.123070	15386.503906
9110.794706	0.090538	0.123070	15466.992187
9110.795665	0.090553	0.123070	15553.832031
9110.796705	0.090531	0.123070	15647.984375
9111.812644	1.286971	0.129579	658.929382
9111.813671	1.718339	0.129579	2423.663086
9111.814574	1.684197	0.129579	3944.492676
9111.815528	1.634996	0.129579	5504.279297
9111.816573	1.581240	0.129579	7156.675293
9111.817510	1.535658	0.129579	8595.586914
9111.818375	1.493972	0.129579	9887.873047
9111.819448	1.447013	0.129579	11440.517578
9111.820456	1.404214	0.129579	12855.964844
9111.821337	1.367651	0.129579	14060.865234
9111.822327	0.770980	0.129579	14824.135742
9111.823377	0.093508	0.129579	14922.319336
9111.824278	0.090491	0.129579	15003.851562
9111.825135	0.090619	0.129579	15081.511719
9111.826207	0.090652	0.129579	15178.690430
9111.827199	0.090538	0.129579	15268.504883
9111.828093	0.090538	0.129579	15349.446289
9111.829093	0.090659	0.129579	15440.105469
9111.830161	0.090634	0.129579	15536.902344
9111.831056	0.090553	0.129579	15617.947266
9111.831925	0.090560	0.129579	15696.644531
9112.817104	1.223046	0.124544	543.032288
9112.817978	1.714387	0.124544	2041.406738
9112.818987	1.690994	0.124544	3747.619385
9112.820044	1.636425	0.124544	5477.320312
9112.820938	1.589454	0.124544	6898.292480
9112.821801	1.544502	0.124544	8231.197266
9112.822928	1.494192	0.124544	9915.151367
9112.823883	1.450843	0.124544	11300.707031
9112.824757	1.413765	0.124544	12536.336914
9112.825780	1.371434	0.124544	13939.314453
9112.826827	0.798962	0.124544	14775.828125
9112.827715	0.097537	0.124544	14862.440430
9112.828635	0.090677	0.124544	14945.863281
9112.829711	0.090674	0.124544	15043.428711
9112.830657	0.090641	0.124544	15129.174805
9112.831530	0.090626	0.124544	15208.291016
9112.832579	0.090681	0.124544	15303.416016
9112.833594	0.090575	0.124544	15395.349609
9112.834485	0.090604	0.124544	15476.078125
9112.835436	0.090608	0.124544	15562.246094
9112.836495	0.090623	0.124544	15658.215820
9113.850311	1.216245	0.133068	535.147888
9113.851190	1.714259	0.133068	2041.981689
9113.852187	1.691217	0.133068	3728.125000
9113.853239	1.636919	0.133068	5450.163574
9113.854136	1.590249	0.133068	6876.616699
9113.855001	1.545959	0.133068	8213.871094
9113.856114	1.495474	0.133068	9878.333008
9113.857086	1.451796	0.133068	11289.478516
9113.857953	1.414391	0.133068	12515.755859
9113.859034	1.369911	0.133068	13996.629883
9113.860077	0.770900	0.133068	14800.677734
9113.860958	0.096863	0.133068	14886.013672
9113.861885	0.090645	0.133068	14970.041016
9113.862960	0.090645	0.133068	15067.484375
9113.863905	0.090560	0.133068	15153.063477
9113.864767	0.090615	0.133068	15231.173828
9113.865805	0.090699	0.133068	15325.320312
9113.866825	0.090619	0.133068	15417.751953
9113.867711	0.090575	0.133068	15498.000977
9113.868671	0.090659	0.133068	15585.034180
9113.869725	0.090707	0.133068	15680.638672
9114.850766	1.209141	0.132182	523.557861
9114.851628	1.712377	0.132182	1999.626587
9114.852752	1.686083	0.132182	3894.783691
9114.853719	1.635216	0.132182	5476.037598
9114.854587	1.590502	0.132182	6856.592773
9114.855631	1.540155	0.132182	8464.514648
9114.856671	1.491039	0.132182	10015.195312
9114.857550	1.450741	0.132182	11290.396484
9114.858485	1.411249	0.132182	12609.914062
9114.859559	1.366534	0.132182	14077.572266
9114.860502	0.793586	0.132182	14825.923828
9114.861365	0.098793	0.132182	14911.181641
9114.862400	0.090637	0.132182	15004.991211
9114.863418	0.090586	0.132182	15097.208008
9114.864303	0.090615	0.132182	15177.402344
9114.865269	0.090751	0.132182	15265.067383
9114.866316	0.090663	0.132182	15359.991211
9114.867243	0.090590	0.132182	15443.967773
9114.868104	0.090619	0.132182	15521.990234
9114.869194	0.090674	0.132182	15620.824219
9114.870185	0.090575	0.132182	15710.583984
9115.897283	1.207804	0.124673	520.563538
9115.898146	1.712062	0.124673	1998.072754
9115.899266	1.685504	0.124673	3885.837402
9115.900236	1.635315	0.124673	5472.092773
9115.901108	1.590297	0.124673	6858.831543
9115.902171	1.538954	0.124673	8494.739258
9115.903205	1.490123	0.124673	10035.526367
9115.904099	1.449694	0.124673	11331.552734
9115.905033	1.410362	0.124673	12648.831055
9115.906105	1.365813	0.124673	14112.982422
9115.907050	0.761375	0.124673	14832.481445
9115.907908	0.097650	0.124673	14916.265625
9115.908973	0.090648	0.124673	15012.805664
9115.909990	0.090645	0.124673	15104.991211
9115.910867	0.090648	0.124673	15184.489258
9115.911848	0.090696	0.124673	15273.461914
9115.912901	0.090685	0.124673	15368.953125
9115.913811	0.090601	0.124673	15451.399414
9115.914670	0.090677	0.124673	15529.291016
9115.915720	0.090740	0.124673	15624.567383
9115.916722	0.090637	0.124673	15715.385742
9116.881336	1.202886	0.105558	507.617798
9116.882456	1.716438	0.105558	2430.028320
9116.883428	1.680553	0.105558	4063.525879
9116.884302	1.634963	0.105558	5492.483887
9116.885326	1.583500	0.105558	7113.987793
9116.886387	1.532596	0.105558	8740.072266
9116.887261	1.489636	0.105558	10042.014648
9116.888174	1.448148	0.105558	11364.173828
9116.889275	1.402632	0.105558	12908.471680
9116.890235	1.363077	0.105558	14217.026367
9116.891113	0.758448	0.105558	14882.944336
9116.892141	0.093468	0.105558	14979.029297
9116.893175	0.090564	0.105558	15072.672852
9116.894064	0.090546	0.105558	15153.167969
9116.895017	0.090685	0.105558	15239.590820
9116.896070	0.090641	0.105558	15335.036133
9116.897005	0.090560	0.105558	15419.709961
9116.897869	0.090641	0.105558	15498.023437
9116.898928	0.090590	0.105558	15593.958008
9116.899933	0.090549	0.105558	15684.959961
9116.900820	0.090648	0.105558	15765.365234
9117.943256	1.241393	0.117478	553.661133
9117.944145	1.715339	0.117478	2078.597656
9117.945022	1.695776	0.117478	3565.793457
9117.946024	1.644470	0.117478	5213.552734
9117.946962	1.595142	0.117478	6709.795410
9117.947892	1.549728	0.117478	8151.041992
9117.948763	1.507178	0.117478	9463.793945
9117.949815	1.460347	0.117478	11000.078125
9117.950694	1.422356	0.117478	12250.329102
9117.951560	1.386215	0.117478	13450.791016
9117.952556	1.238580	0.117478	14684.416992
9117.953480	0.195326	0.117478	14864.898437
9117.954386	0.090516	0.117478	14946.906250
9117.955263	0.090630	0.117478	15026.388672
9117.956290	0.090538	0.117478	15119.371094
9117.957190	0.090531	0.117478	15200.848633
9117.958065	0.090626	0.117478	15280.146484
9117.958965	0.090685	0.117478	15361.762695
9117.959963	0.090483	0.117478	15452.065430
9117.960888	0.090597	0.117478	15535.867187
9117.961757	0.090604	0.117478	15614.602539
9118.913987	1.202395	0.106074	519.434631
9118.914854	1.713395	0.106074	2004.947998
9118.915840	1.692546	0.106074	3673.798828
9118.916782	1.642548	0.106074	5221.078613
9118.917702	1.595925	0.106074	6689.330078
9118.918586	1.551464	0.106074	8060.823730
9118.919635	1.502692	0.106074	9637.147461
9118.920539	1.461185	0.106074	10958.058594
9118.921412	1.423535	0.106074	12200.804687
9118.922383	1.384098	0.106074	13544.763672
9118.923358	1.227565	0.106074	14741.639648
9118.924278	0.179410	0.106074	14906.697266
9118.925143	0.090447	0.106074	14984.933594
9118.926203	0.090564	0.106074	15080.931641
9118.927080	0.090505	0.106074	15160.304687
9118.927941	0.090513	0.106074	15238.236328
9118.928823	0.090612	0.106074	15318.155273
9118.929867	0.090549	0.106074	15412.688477
9118.930766	0.090557	0.106074	15494.098633
9118.931639	0.090608	0.106074	15573.199219
9118.932630	0.090656	0.106074	15663.039062
9119.982166	1.334590	0.114207	767.389160
9119.983136	1.718910	0.114207	2434.731689
9119.984009	1.685262	0.114207	3905.965820
9119.984879	1.636791	0.114207	5329.973633
9119.986007	1.582544	0.114207	7115.083008
9119.986908	1.538511	0.114207	8501.281250
9119.987776	1.497272	0.114207	9800.913086
9119.988820	1.450312	0.114207	11315.039062
9119.989796	1.409070	0.114207	12690.291016
9119.990677	1.372430	0.114207	13899.402344
9119.991548	0.974612	0.114207	14748.289062
9119.992673	0.100151	0.114207	14860.958984
9119.993569	0.090505	0.114207	14942.051758
9119.994426	0.090593	0.114207	15019.690430
9119.995507	0.090612	0.114207	15117.641602
9119.996475	0.090560	0.114207	15205.303711
9119.997346	0.090560	0.114207	15284.181641
9119.998202	0.090604	0.114207	15361.739258
9119.999327	0.090586	0.114207	15463.648437
9120.000202	0.090509	0.114207	15542.843750
9120.001075	0.090505	0.114207	15621.854492
9120.955963	1.299327	0.116193	688.643494
9120.956844	1.717599	0.116193	2201.848145
9120.957714	1.692429	0.116193	3674.261475
9120.958610	1.643690	0.116193	5147.007812
9120.959649	1.591315	0.116193	6800.383789
9120.960549	1.547516	0.116193	8193.148437
9120.961430	1.506295	0.116193	9520.194336
9120.962440	1.460581	0.116193	10995.380859
9120.963379	1.419192	0.116193	12328.001953
9120.964308	1.381044	0.116193	13610.991211
9120.965178	1.201677	0.116193	14656.450195
9120.966227	0.143595	0.116193	14807.081055
9120.967119	0.090480	0.116193	14887.789062
9120.967991	0.090531	0.116193	14966.732422
9120.968987	0.090520	0.116193	15056.890625
9120.969919	0.090542	0.116193	15141.275391
9120.970790	0.090542	0.116193	15220.137695
9120.971748	0.090601	0.116193	15306.932617
9120.972786	0.090590	0.116193	15400.964844
9120.973654	0.090557	0.116193	15479.568359
9120.974530	0.090626	0.116193	15558.957031
9122.012651	1.250610	0.112370	589.037476
9122.013534	1.716079	0.112370	2104.335449
9122.014400	1.694831	0.112370	3572.059570
9122.015464	1.640068	0.112370	5317.092285
9122.016408	1.591732	0.112370	6819.687500
9122.017292	1.548278	0.112370	8188.364746
9122.018249	1.503779	0.112370	9627.481445
9122.019292	1.455963	0.112370	11146.050781
9122.020186	1.417650	0.112370	12413.429687
9122.021051	1.381153	0.112370	13608.126953
9122.022107	1.065319	0.112370	14733.103516
9122.023059	0.123995	0.112370	14851.147461
9122.023932	0.090626	0.112370	14930.263672
9122.024868	0.090688	0.112370	15015.148437
9122.025934	0.090612	0.112370	15111.740234
9122.026812	0.090557	0.112370	15191.249023
9122.027676	0.090604	0.112370	15269.531250
9122.028706	0.090721	0.112370	15362.974609
9122.029662	0.090579	0.112370	15449.567383
9122.030537	0.090623	0.112370	15528.862305
9122.031437	0.090670	0.112370	15610.465820
9123.004857	1.197909	0.102477	505.517548
9123.005903	1.717811	0.102477	2302.348145
9123.006790	1.688855	0.102477	3800.362549
9123.007667	1.642969	0.102477	5241.246094
9123.008651	1.593827	0.102477	6809.571777
9123.009615	1.545758	0.102477	8299.682617
9123.010487	1.503713	0.102477	9610.920898
9123.011404	1.461013	0.102477	10950.669922
9123.012478	1.416127	0.102477	12471.589844
9123.013381	1.378466	0.102477	13716.343750
9123.014257	1.214916	0.102477	14780.610352
9123.015198	0.183351	0.102477	14953.143555
9123.016182	0.090513	0.102477	15042.208008
9123.017092	0.090615	0.102477	15124.667969
9123.017966	0.090685	0.102477	15203.926758
9123.019046	0.090729	0.102477	15301.914062
9123.019944	0.090590	0.102477	15383.263672
9123.020817	0.090718	0.102477	15462.459961
9123.021677	0.090652	0.102477	15540.420898
9123.022732	0.090612	0.102477	15636.015625
9123.023613	0.090604	0.102477	15715.837891
9124.042282	1.313397	0.106002	690.846985
9124.043186	1.717950	0.106002	2243.874268
9124.044062	1.691144	0.106002	3725.316406
9124.044929	1.643214	0.106002	5149.982910
9124.046006	1.590586	0.106002	6863.043945
9124.046896	1.546794	0.106002	8239.691406
9124.047773	1.505215	0.106002	9559.764648
9124.048780	1.460196	0.106002	11030.182617
9124.049699	1.419708	0.106002	12334.894531
9124.050628	1.381490	0.106002	13618.298828
9124.051499	1.205782	0.106002	14668.535156
9124.052549	0.153146	0.106002	14829.337891
9124.053421	0.090454	0.106002	14908.213867
9124.054292	0.090579	0.106002	14987.107422
9124.055255	0.090634	0.106002	15074.387695
9124.056201	0.090557	0.106002	15160.054687
9124.057113	0.090601	0.106002	15242.682617
9124.057988	0.090612	0.106002	15321.967773
9124.059015	0.090575	0.106002	15414.988281
9124.059906	0.090586	0.106002	15495.700195
9124.060782	0.090564	0.106002	15575.034180
9125.045738	1.244059	0.100447	582.219543
9125.046619	1.715306	0.100447	2093.404541
9125.047493	1.695330	0.100447	3575.122559
9125.048457	1.645807	0.100447	5161.680664
9125.049431	1.595533	0.100447	6715.730469
9125.050355	1.550087	0.100447	8148.010742
9125.051223	1.508379	0.100447	9457.283203
9125.052272	1.461687	0.100447	10990.592773
9125.053147	1.422686	0.100447	12235.442383
9125.054023	1.386376	0.100447	13449.907227
9125.054914	1.265006	0.100447	14577.027344
9125.055935	0.198336	0.100447	14779.528320
9125.056859	0.090447	0.100447	14863.101562
9125.057735	0.090564	0.100447	14942.435547
9125.058717	0.090538	0.100447	15031.343750
9125.059635	0.090571	0.100447	15114.488281
9125.060555	0.090568	0.100447	15197.810547
9125.061416	0.090674	0.100447	15275.880859
9125.062466	0.090568	0.100447	15370.976562
9125.063350	0.090538	0.100447	15451.012695
9125.064214	0.090516	0.100447	15529.218750
9126.077979	1.292882	0.119996	658.076965
9126.079002	1.718020	0.119996	2415.611328
9126.079895	1.684277	0.119996	3919.670898
9126.080810	1.636688	0.119996	5417.240723
9126.081692	1.590359	0.119996	6819.937500
9126.082685	1.543308	0.119996	8352.442383
9126.083608	1.499626	0.119996	9736.597656
9126.084481	1.459563	0.119996	11010.795898
9126.085519	1.415783	0.119996	12480.377930
9126.086431	1.377748	0.119996	13736.883789
9126.087362	1.138781	0.119996	14797.088867
9126.088233	0.153043	0.119996	14930.389648
9126.089213	0.090417	0.119996	15018.999023
9126.090124	0.090546	0.119996	15101.486328
9126.091010	0.090538	0.119996	15181.703125
9126.092003	0.090553	0.119996	15271.622070
9126.092914	0.090546	0.119996	15354.109375
9126.093842	0.090601	0.119996	15438.186523
9126.094717	0.090535	0.119996	15517.404297
9126.095670	0.090538	0.119996	15603.687500
9126.096594	0.090505	0.119996	15687.314453
9127.080381	1.193079	0.107927	507.058411
9127.081253	1.711527	0.107927	1999.510010
9127.082318	1.688405	0.107927	3797.660889
9127.083218	1.640717	0.107927	5274.305664
9127.084095	1.596445	0.107927	6674.388184
9127.085119	1.546930	0.107927	8258.444336
9127.086051	1.501652	0.107927	9657.983398
9127.086975	1.459739	0.107927	11006.782227
9127.087843	1.421598	0.107927	12240.729492
9127.088883	1.379692	0.107927	13675.609375
9127.089762	1.218340	0.107927	14746.530273
9127.090640	0.188925	0.107927	14912.406250
9127.091614	0.090469	0.107927	15000.522461
9127.092565	0.090502	0.107927	15086.589844
9127.093478	0.090487	0.107927	15169.204102
9127.094355	0.090575	0.107927	15248.638672
9127.095395	0.090542	0.107927	15342.802734
9127.096288	0.090487	0.107927	15423.607422
9127.097162	0.090553	0.107927	15502.750977
9127.098077	0.090564	0.107927	15585.617187
9127.099085	0.090491	0.107927	15676.832031
9128.121887	1.232490	0.122212	644.592346
9128.122786	1.716749	0.122212	2187.949951
9128.123692	1.689254	0.122212	3718.414062
9128.124582	1.643273	0.122212	5180.926758
9128.125514	1.595460	0.122212	6667.895508
9128.126462	1.548852	0.122212	8136.207520
9128.127355	1.506625	0.122212	9481.623047
9128.128320	1.463115	0.122212	10893.529297
9128.129283	1.420536	0.122212	12261.505859
9128.130216	1.382340	0.122212	13551.229492
9128.131088	1.232922	0.122212	14626.337891
9128.132139	0.159386	0.122212	14793.852539
9128.133021	0.090410	0.122212	14873.594727
9128.133944	0.090509	0.122212	14957.134766
9128.134804	0.090520	0.122212	15034.982422
9128.135779	0.090549	0.122212	15123.267578
9128.136707	0.090571	0.122212	15207.317383
9128.137581	0.090575	0.122212	15286.479492
9128.138604	0.090582	0.122212	15379.145508
9128.139505	0.090538	0.122212	15460.720703
9128.140429	0.090520	0.122212	15544.361328
9129.112034	1.244385	0.106590	574.905762
9129.112920	1.715607	0.106590	2094.933350
9129.113900	1.690203	0.106590	3751.332031
9129.114969	1.634249	0.106590	5498.344727
9129.115896	1.586448	0.106590	6968.981934
9129.116765	1.543055	0.106590	8309.897461
9129.117836	1.493474	0.106590	9909.408203
9129.118837	1.448551	0.106590	11359.408203
9129.119736	1.410758	0.106590	12627.679687
9129.120747	1.369464	0.106590	14012.208008
9129.121795	0.741746	0.106590	14789.557617
9129.122672	0.095504	0.106590	14873.314453
9129.123529	0.090480	0.106590	14950.855469
9129.124635	0.090608	0.106590	15051.067383
9129.125591	0.090410	0.106590	15137.499023
9129.126449	0.090535	0.106590	15215.177734
9129.127475	0.090699	0.106590	15308.235352
9129.128528	0.090557	0.106590	15403.591797
9129.129399	0.090458	0.106590	15482.380859
9129.130311	0.090513	0.106590	15564.928711
9129.131389	0.090549	0.106590	15662.541016
9130.166715	1.203585	0.114292	509.116577
9130.167801	1.716193	0.114292	2372.901855
9130.168772	1.681996	0.114292	4006.119873
9130.169644	1.636157	0.114292	5432.849121
9130.170665	1.584829	0.114292	7050.959473
9130.171708	1.534570	0.114292	8651.516602
9130.172588	1.492251	0.114292	9964.697266
9130.173480	1.450701	0.114292	11258.722656
9130.174590	1.405737	0.114292	12819.090820
9130.175544	1.366091	0.114292	14122.341797
9130.176410	0.870194	0.114292	14875.929687
9130.177444	0.096002	0.114292	14975.196289
9130.178480	0.090557	0.114292	15069.012695
9130.179367	0.090494	0.114292	15149.281250
9130.180290	0.090645	0.114292	15232.946289
9130.181355	0.090549	0.114292	15329.380859
9130.182295	0.090461	0.114292	15414.415039
9130.183163	0.090542	0.114292	15493.005859
9130.184220	0.090582	0.114292	15588.750977
9130.185228	0.090549	0.114292	15680.024414
9130.186119	0.090513	0.114292	15760.670898
9131.144710	1.269338	0.096007	632.130493
9131.145620	1.717372	0.096007	2194.938965
9131.146483	1.691481	0.096007	3654.686768
9131.147584	1.635136	0.096007	5454.970703
9131.148585	1.584053	0.096007	7040.607422
9131.149487	1.540027	0.096007	8429.711914
9131.150482	1.493961	0.096007	9916.203125
9131.151541	1.446848	0.096007	11448.415039
9131.152441	1.407821	0.096007	12715.454102
9131.153307	1.370101	0.096007	13901.961914
9131.154427	0.736091	0.096007	14726.383789
9131.155382	0.093552	0.096007	14815.726562
9131.156239	0.090557	0.096007	14893.333984
9131.157295	0.090721	0.096007	14989.135742
9131.158328	0.090480	0.096007	15082.601562
9131.159211	0.090590	0.096007	15162.591797
9131.160138	0.090659	0.096007	15246.632812
9131.161224	0.090619	0.096007	15345.044922
9131.162160	0.090546	0.096007	15429.795898
9131.163019	0.090487	0.096007	15507.524414
9131.164049	0.090648	0.096007	15600.891602
9132.209595	1.195140	0.104688	507.934692
9132.210651	1.715717	0.104688	2319.731445
9132.211669	1.681476	0.104688	4031.473877
9132.212558	1.634557	0.104688	5484.594727
9132.213506	1.586785	0.104688	6988.866699
9132.214568	1.535043	0.104688	8619.082031
9132.215492	1.490951	0.104688	9996.720703
9132.216357	1.451396	0.104688	11252.178711
9132.217438	1.406843	0.104688	12772.976562
9132.218452	1.364571	0.104688	14156.652344
9132.219342	0.802189	0.104688	14870.600586
9132.220333	0.098163	0.104688	14967.879883
9132.221371	0.090586	0.104688	15061.908203
9132.222258	0.090560	0.104688	15142.235352
9132.223127	0.090494	0.104688	15220.875000
9132.224206	0.090641	0.104688	15318.676758
9132.225196	0.090505	0.104688	15408.277344
9132.226094	0.090557	0.104688	15489.597656
9132.227078	0.090707	0.104688	15578.853516
9132.228135	0.090582	0.104688	15674.598633
9132.229022	0.090546	0.104688	15754.913086
9133.178325	1.229176	0.099484	550.670837
9133.179201	1.714490	0.099484	2052.563965
9133.180187	1.691210	0.099484	3720.096680
9133.181250	1.635483	0.099484	5458.615234
9133.182167	1.588125	0.099484	6914.925781
9133.183031	1.544590	0.099484	8249.451172
9133.184134	1.493994	0.099484	9897.326172
9133.185100	1.450452	0.099484	11298.462891
9133.185982	1.413146	0.099484	12544.857422
9133.187010	1.371427	0.099484	13954.684570
9133.188058	0.797520	0.099484	14790.485352
9133.188940	0.097628	0.099484	14876.593750
9133.189816	0.090535	0.099484	14955.902344
9133.190907	0.090582	0.099484	15054.727539
9133.191865	0.090542	0.099484	15141.466797
9133.192727	0.090564	0.099484	15219.533203
9133.193750	0.090634	0.099484	15312.250977
9133.194788	0.090663	0.099484	15406.359375
9133.195657	0.090590	0.099484	15485.082031
9133.196579	0.090612	0.099484	15568.625977
9133.197648	0.090601	0.099484	15665.477539
9134.248390	1.189094	0.102066	514.877808
9134.249254	1.712900	0.102066	1994.823730
9134.250274	1.690931	0.102066	3719.573730
9134.251318	1.636739	0.102066	5428.329590
9134.252205	1.590677	0.102066	6839.260742
9134.253125	1.545231	0.102066	8260.873047
9134.254199	1.494990	0.102066	9866.492187
9134.255152	1.452184	0.102066	11250.423828
9134.256020	1.414676	0.102066	12478.363281
9134.257073	1.371636	0.102066	13922.695312
9134.258110	0.827574	0.102066	14780.889648
9134.258985	0.100005	0.102066	14868.393555
9134.259915	0.090626	0.102066	14952.675781
9134.260982	0.090645	0.102066	15049.393555
9134.261903	0.090582	0.102066	15132.820312
9134.262766	0.090623	0.102066	15211.027344
9134.263806	0.090685	0.102066	15305.339844
9134.264839	0.090571	0.102066	15398.900391
9134.265726	0.090586	0.102066	15479.250000
9134.266677	0.090710	0.102066	15565.515625
9134.267740	0.090626	0.102066	15661.851562
9135.215041	1.194170	0.107919	512.298950
9135.215911	1.712963	0.107919	2002.576416
9135.216962	1.688419	0.107919	3777.104980
9135.217991	1.635238	0.107919	5459.764648
9135.218889	1.588964	0.107919	6886.653809
9135.219861	1.542517	0.107919	8385.980469
9135.220919	1.491771	0.107919	9964.274414
9135.221857	1.449715	0.107919	11324.107422
9135.222722	1.412194	0.107919	12545.654297
9135.223804	1.368325	0.107919	14026.182617
9135.224807	0.762308	0.107919	14790.778320
9135.225683	0.097130	0.107919	14875.864258
9135.226671	0.090579	0.107919	14965.355469
9135.227704	0.090670	0.107919	15059.017578
9135.228613	0.090579	0.107919	15141.353516
9135.229472	0.090667	0.107919	15219.236328
9135.230563	0.090710	0.107919	15318.201172
9135.231550	0.090546	0.107919	15407.569336
9135.232422	0.090549	0.107919	15486.528320
9135.233404	0.090751	0.107919	15575.645508
9135.234451	0.090546	0.107919	15670.447266
9136.283171	1.263197	0.101587	668.231262
9136.284238	1.716753	0.101587	2500.006592
9136.285160	1.680117	0.101587	4049.074707
9136.286027	1.632861	0.101587	5464.765625
9136.287136	1.578289	0.101587	7215.087891
9136.288134	1.530139	0.101587	8742.166992
9136.289025	1.487864	0.101587	10067.853516
9136.290036	1.443677	0.101587	11527.410156
9136.291084	1.399878	0.101587	12994.482422
9136.291970	1.362491	0.101587	14201.649414
9136.292868	0.724666	0.101587	14852.399414
9136.293937	0.092314	0.101587	14951.083984
9136.294890	0.090509	0.101587	15037.338867
9136.295752	0.090568	0.101587	15115.408203
9136.296795	0.090637	0.101587	15209.942383
9136.297832	0.090542	0.101587	15303.833984
9136.298714	0.090564	0.101587	15383.710937
9136.299631	0.090645	0.101587	15466.832031
9136.300690	0.090688	0.101587	15562.871094
9136.301632	0.090571	0.101587	15648.189453
9136.302496	0.090557	0.101587	15726.430664
9137.253894	1.265478	0.117084	632.739258
9137.254836	1.717573	0.117084	2250.693359
9137.255710	1.690166	0.117084	3727.898437
9137.256751	1.635835	0.117084	5430.802734
9137.257772	1.584115	0.117084	7048.184082
9137.258670	1.540049	0.117084	8431.147461
9137.259608	1.495968	0.117084	9834.365234
9137.260685	1.447555	0.117084	11393.381836
9137.261626	1.407762	0.117084	12718.085937
9137.262493	1.371050	0.117084	13906.786133
9137.263567	0.788774	0.117084	14753.929687
9137.264564	0.093691	0.117084	14847.339844
9137.265456	0.090582	0.117084	14928.139648
9137.266421	0.090549	0.117084	15015.519531
9137.267459	0.090524	0.117084	15109.483398
9137.268369	0.090520	0.117084	15191.856445
9137.269232	0.090502	0.117084	15269.958984
9137.270310	0.090608	0.117084	15367.634766
9137.271309	0.090491	0.117084	15458.035156
9137.272180	0.090549	0.117084	15536.903320
9137.273159	0.090582	0.117084	15625.583008
9138.320896	1.254357	0.099339	617.143433
9138.321771	1.716328	0.099339	2118.930664
9138.322659	1.691905	0.099339	3621.342773
9138.323765	1.635868	0.099339	5430.612793
9138.324726	1.587023	0.099339	6955.741699
9138.325590	1.544322	0.099339	8290.036133
9138.326644	1.494906	0.099339	9865.666992
9138.327687	1.448137	0.099339	11376.074219
9138.328574	1.410396	0.099339	12627.094727
9138.329533	1.371519	0.099339	13942.380859
9138.330593	0.771709	0.099339	14760.392578
9138.331511	0.095702	0.099339	14848.247070
9138.332367	0.090542	0.099339	14925.750977
9138.333436	0.090703	0.099339	15022.712891
9138.334441	0.090652	0.099339	15113.818359
9138.335311	0.090601	0.099339	15192.640625
9138.336284	0.090699	0.099339	15280.891602
9138.337334	0.090645	0.099339	15376.068359
9138.338249	0.090608	0.099339	15458.974609
9138.339114	0.090681	0.099339	15537.414062
9138.340171	0.090656	0.099339	15633.237305
9139.292660	1.226957	0.124455	593.847046
9139.293740	1.716262	0.124455	2447.410156
9139.294684	1.680223	0.124455	4033.541016
9139.295556	1.634377	0.124455	5458.718262
9139.296610	1.580420	0.124455	7124.480957
9139.297641	1.531095	0.124455	8703.040039
9139.298534	1.488849	0.124455	10032.582031
9139.299501	1.446350	0.124455	11431.203125
9139.300569	1.401053	0.124455	12927.528320
9139.301488	1.362891	0.124455	14180.024414
9139.302354	0.771603	0.124455	14848.232422
9139.303449	0.092483	0.124455	14949.500977
9139.304430	0.090527	0.124455	15038.308594
9139.305317	0.090527	0.124455	15118.606445
9139.306308	0.090648	0.124455	15208.438477
9139.307372	0.090601	0.124455	15304.837891
9139.308273	0.090509	0.124455	15386.386719
9139.309136	0.090568	0.124455	15464.546875
9139.310228	0.090626	0.124455	15563.510742
9139.311195	0.090513	0.124455	15651.036133
9139.312056	0.090546	0.124455	15728.996094
9140.357597	1.239064	0.094279	567.491211
9140.358475	1.715013	0.094279	2073.272949
9140.359448	1.691155	0.094279	3718.766602
9140.360518	1.635183	0.094279	5468.412598
9140.361437	1.587803	0.094279	6927.603516
9140.362303	1.544337	0.094279	8265.000000
9140.363395	1.494064	0.094279	9896.517578
9140.364385	1.449375	0.094279	11331.398437
9140.365283	1.411058	0.094279	12598.529297
9140.366208	1.373126	0.094279	13868.670898
9140.367074	1.034601	0.094279	14764.634766
9140.368069	0.117711	0.094279	14881.757812
9140.368986	0.090571	0.094279	14964.811523
9140.369853	0.090608	0.094279	15043.368164
9140.370873	0.090619	0.094279	15135.799805
9140.371770	0.090553	0.094279	15217.025391
9140.372682	0.090557	0.094279	15299.613281
9140.373549	0.090494	0.094279	15378.072266
9140.374521	0.090502	0.094279	15466.040039
9140.375447	0.090608	0.094279	15549.943359
9140.376333	0.090564	0.094279	15630.182617
9141.328316	1.189427	0.130929	501.938416
9141.329275	1.711106	0.130929	2142.888916
9141.330335	1.683545	0.130929	3927.446533
9141.331262	1.635198	0.130929	5443.274902
9141.332129	1.589901	0.130929	6821.719238
9141.333227	1.537364	0.130929	8509.745117
9141.334229	1.489867	0.130929	10002.591797
9141.335123	1.450063	0.130929	11298.948242
9141.336106	1.408806	0.130929	12683.804687
9141.337170	1.364960	0.130929	14136.122070
9141.338078	0.780231	0.130929	14844.571289
9141.338941	0.098119	0.130929	14929.248047
9141.340027	0.090754	0.130929	15027.807617
9141.340986	0.090480	0.130929	15114.578125
9141.341858	0.090571	0.130929	15193.556641
9141.342978	0.090685	0.130929	15295.124023
9141.344005	0.090586	0.130929	15388.156250
9141.344887	0.090571	0.130929	15468.040039
9141.345811	0.090597	0.130929	15551.751953
9141.346870	0.090564	0.130929	15647.659180
9141.347807	0.090604	0.130929	15732.555664
9142.397396	1.229810	0.081433	553.414307
9142.398275	1.714559	0.081433	2060.511963
9142.399246	1.691448	0.081433	3702.907715
9142.400308	1.635817	0.081433	5440.145020
9142.401230	1.588528	0.081433	6904.767578
9142.402100	1.544465	0.081433	8248.452148
9142.403212	1.493412	0.081433	9909.125977
9142.404195	1.449130	0.081433	11333.620117
9142.405078	1.411765	0.081433	12580.208984
9142.406116	1.369310	0.081433	14001.552734
9142.407164	0.744785	0.081433	14782.087891
9142.408041	0.095874	0.081433	14866.168945
9142.408931	0.090553	0.081433	14946.760742
9142.410013	0.090674	0.081433	15044.870117
9142.410965	0.090546	0.081433	15131.069336
9142.411827	0.090542	0.081433	15209.116211
9142.412847	0.090597	0.081433	15301.525391
9142.413888	0.090641	0.081433	15395.882812
9142.414759	0.090520	0.081433	15474.725586
9142.415682	0.090597	0.081433	15558.346680
9142.416756	0.090630	0.081433	15655.683594
9143.365047	1.186915	0.129890	500.878235
9143.366075	1.714153	0.129890	2263.027344
9143.367131	1.680410	0.129890	4037.540527
9143.368027	1.633315	0.129890	5500.991211
9143.368971	1.585199	0.129890	6997.418945
9143.370042	1.533116	0.129890	8639.386719
9143.370988	1.488618	0.129890	10047.619141
9143.371858	1.449086	0.129890	11308.324219
9143.372925	1.404639	0.129890	12807.073242
9143.373934	1.363070	0.129890	14182.411133
9143.374831	0.750791	0.129890	14855.871094
9143.375802	0.096445	0.129890	14949.519531
9143.376853	0.090645	0.129890	15044.787109
9143.377769	0.090604	0.129890	15127.780273
9143.378631	0.090630	0.129890	15205.903320
9143.379705	0.090740	0.129890	15303.357422
9143.380688	0.090557	0.129890	15392.375000
9143.381576	0.090575	0.129890	15472.805664
9143.382568	0.090681	0.129890	15562.761719
9143.383611	0.090604	0.129890	15657.261719
9143.384501	0.090553	0.129890	15737.853516
9144.436153	1.213282	0.076426	513.218506
9144.437223	1.717939	0.076426	2351.413818
9144.438122	1.686244	0.076426	3867.347168
9144.438998	1.640358	0.076426	5304.300293
9144.439992	1.590227	0.076426	6884.985840
9144.440947	1.542916	0.076426	8358.470703
9144.441875	1.499326	0.076426	9749.845703
9144.442744	1.458483	0.076426	11017.267578
9144.443792	1.415193	0.076426	12500.389648
9144.444675	1.378235	0.076426	13717.371094
9144.445547	1.222830	0.076426	14783.678711
9144.446536	0.181124	0.076426	14962.810547
9144.447471	0.090425	0.076426	15047.357422
9144.448381	0.090546	0.076426	15129.753906
9144.449254	0.090560	0.076426	15208.813477
9144.450281	0.090630	0.076426	15301.890625
9144.451176	0.090531	0.076426	15382.916016
9144.452047	0.090571	0.076426	15461.803711
9144.452930	0.090677	0.076426	15541.872070
9144.453955	0.090513	0.076426	15634.647461
9144.454842	0.090608	0.076426	15715.016602
9145.404858	1.185663	0.116507	496.792755
9145.405782	1.710483	0.116507	2077.279541
9145.406867	1.684779	0.116507	3905.264648
9145.407764	1.637080	0.116507	5373.725586
9145.408632	1.592754	0.116507	6756.235840
9145.409661	1.542510	0.116507	8343.478516
9145.410632	1.496451	0.116507	9796.533203
9145.411512	1.456699	0.116507	11078.428711
9145.412394	1.417848	0.116507	12328.970703
9145.413505	1.373818	0.116507	13855.283203
9145.414405	1.062074	0.116507	14811.149414
9145.415270	0.131133	0.116507	14924.579102
9145.416312	0.090553	0.116507	15018.935547
9145.417282	0.090648	0.116507	15106.864258
9145.418152	0.090597	0.116507	15185.683594
9145.419013	0.090612	0.116507	15263.700195
9145.420117	0.090590	0.116507	15363.710937
9145.420998	0.090535	0.116507	15443.471680
9145.421863	0.090582	0.116507	15521.825195
9145.422866	0.090593	0.116507	15612.690430
9145.423860	0.090524	0.116507	15702.670898
9146.473922	1.193826	0.077163	512.151184
9146.474794	1.712754	0.077163	2005.672607
9146.475837	1.688697	0.077163	3766.983887
9146.476868	1.634949	0.077163	5452.616211
9146.477765	1.588898	0.077163	6877.857422
9146.478730	1.542436	0.077163	8366.308594
9146.479799	1.491617	0.077163	9960.847656
9146.480736	1.449452	0.077163	11318.984375
9146.481604	1.411882	0.077163	12544.498047
9146.482691	1.367384	0.077163	14030.844727
9146.483702	0.741097	0.077163	14780.093750
9146.484599	0.095160	0.077163	14865.452148
9146.485585	0.090736	0.077163	14954.917969
9146.486619	0.090615	0.077163	15048.614258
9146.487514	0.090575	0.077163	15129.678711
9146.488374	0.090601	0.077163	15207.595703
9146.489469	0.090612	0.077163	15306.815430
9146.490458	0.090645	0.077163	15396.462891
9146.491335	0.090648	0.077163	15475.960937
9146.492329	0.090667	0.077163	15566.083008
9146.493387	0.090634	0.077163	15661.973633
9147.444667	1.188911	0.106445	504.098297
9147.445702	1.714380	0.106445	2278.481445
9147.446730	1.681780	0.106445	4007.351074
9147.447614	1.635143	0.106445	5452.817383
9147.448541	1.586957	0.106445	6923.926270
9147.449632	1.535208	0.106445	8598.837891
9147.450555	1.491002	0.106445	9975.033203
9147.451421	1.451909	0.106445	11232.386719
9147.452460	1.407770	0.106445	12695.059570
9147.453494	1.365132	0.106445	14106.605469
9147.454395	0.825699	0.106445	14850.560547
9147.455355	0.099910	0.106445	14946.473633
9147.456407	0.090564	0.106445	15041.747070
9147.457333	0.090608	0.106445	15125.650391
9147.458196	0.090641	0.106445	15203.873047
9147.459280	0.090699	0.106445	15302.191406
9147.460269	0.090586	0.106445	15391.781250
9147.461159	0.090641	0.106445	15472.451172
9147.462132	0.090677	0.106445	15560.680664
9147.463190	0.090634	0.106445	15656.571289
9147.464092	0.090615	0.106445	15738.306641
9148.508731	1.302125	0.089344	722.679504
9148.509788	1.716570	0.089344	2537.093750
9148.510671	1.680736	0.089344	4021.183594
9148.511540	1.632975	0.089344	5440.238770
9148.512655	1.578417	0.089344	7200.173340
9148.513635	1.531604	0.089344	8701.145508
9148.514507	1.490251	0.089344	10000.644531
9148.515546	1.443944	0.089344	11500.902344
9148.516602	1.399819	0.089344	12979.111328
9148.517500	1.362440	0.089344	14202.582031
9148.518444	0.696482	0.089344	14860.060547
9148.519508	0.091630	0.089344	14957.554687
9148.520447	0.090542	0.089344	15042.573242
9148.521312	0.090626	0.089344	15120.964844
9148.522365	0.090692	0.089344	15216.463867
9148.523387	0.090564	0.089344	15309.020508
9148.524277	0.090630	0.089344	15389.680664
9148.525227	0.090656	0.089344	15475.803711
9148.526267	0.090604	0.089344	15570.032227
9148.527184	0.090538	0.089344	15653.055664
9148.528043	0.090604	0.089344	15730.884766
9149.488714	1.340046	0.095004	757.126221
9149.489781	1.716735	0.095004	2588.882080
9149.490674	1.679220	0.095004	4088.425537
9149.491569	1.630865	0.095004	5548.050293
9149.492669	1.576794	0.095004	7282.524414
9149.493618	1.531007	0.095004	8735.450195
9149.494478	1.490112	0.095004	10016.947266
9149.495527	1.443915	0.095004	11531.614258
9149.496555	1.400823	0.095004	12971.660156
9149.497446	1.363586	0.095004	14186.615234
9149.498406	0.705472	0.095004	14863.869141
9149.499458	0.092117	0.095004	14960.776367
9149.500388	0.090535	0.095004	15044.973633
9149.501243	0.090549	0.095004	15122.393555
9149.502278	0.090696	0.095004	15216.263672
9149.503303	0.090597	0.095004	15309.125977
9149.504193	0.090553	0.095004	15389.717773
9149.505159	0.090623	0.095004	15477.258789
9149.506214	0.090553	0.095004	15572.791992
9149.507126	0.090527	0.095004	15655.352539
9149.507987	0.090546	0.095004	15733.312500
9150.539272	1.264314	0.099383	633.421326
9150.540208	1.717438	0.099383	2240.943115
9150.541075	1.690477	0.099383	3706.586914
9150.542112	1.636348	0.099383	5403.479492
9150.543140	1.584130	0.099383	7031.964844
9150.544034	1.540701	0.099383	8409.351562
9150.544986	1.496169	0.099383	9833.705078
9150.546045	1.448086	0.099383	11367.228516
9150.546983	1.408488	0.099383	12688.389648
9150.547851	1.371713	0.099383	13879.036133
9150.548943	0.787676	0.099383	14739.177734
9150.549947	0.093494	0.099383	14833.044922
9150.550828	0.090509	0.099383	14912.783203
9150.551814	0.090681	0.099383	15002.194336
9150.552850	0.090608	0.099383	15096.064453
9150.553753	0.090615	0.099383	15177.889648
9150.554613	0.090542	0.099383	15255.755859
9150.555697	0.090656	0.099383	15354.026367
9150.556676	0.090560	0.099383	15442.684570
9150.557552	0.090571	0.099383	15522.025391
9150.558555	0.090667	0.099383	15612.963867
9151.530432	1.200469	0.103258	513.800659
9151.531294	1.711110	0.103258	1988.777222
9151.532406	1.685889	0.103258	3863.485352
9151.533361	1.635700	0.103258	5425.578125
9151.534224	1.591652	0.103258	6799.173828
9151.535268	1.540917	0.103258	8407.890625
9151.536314	1.491599	0.103258	9968.103516
9151.537200	1.451433	0.103258	11254.073242
9151.538142	1.411538	0.103258	12583.742187
9151.539222	1.367150	0.103258	14060.263672
9151.540162	0.817152	0.103258	14828.386719
9151.541023	0.100162	0.103258	14914.626953
9151.542092	0.090663	0.103258	15011.545898
9151.543109	0.090626	0.103258	15103.712891
9151.543978	0.090630	0.103258	15182.470703
9151.544940	0.090593	0.103258	15269.621094
9151.545996	0.090615	0.103258	15365.310547
9151.546915	0.090593	0.103258	15448.565430
9151.547781	0.090670	0.103258	15527.085937
9151.548860	0.090652	0.103258	15624.899414
9151.549856	0.090546	0.103258	15715.083008
9152.569808	1.228894	0.105530	548.086731
9152.570686	1.713951	0.105530	2052.936035
9152.571691	1.689463	0.105530	3750.846191
9152.572749	1.634850	0.105530	5480.517578
9152.573650	1.588187	0.105530	6911.474121
9152.574531	1.543520	0.105530	8271.315430
9152.575634	1.493042	0.105530	9918.140625
9152.576596	1.450129	0.105530	11313.165039
9152.577470	1.412703	0.105530	12547.867187
9152.578527	1.369164	0.105530	13995.073242
9152.579567	0.753365	0.105530	14778.573242
9152.580458	0.095940	0.105530	14864.055664
9152.581385	0.090535	0.105530	14947.981445
9152.582456	0.090699	0.105530	15045.120117
9152.583377	0.090656	0.105530	15128.614258
9152.584237	0.090626	0.105530	15206.552734
9152.585288	0.090670	0.105530	15301.846680
9152.586303	0.090524	0.105530	15393.728516
9152.587181	0.090604	0.105530	15473.279297
9152.588142	0.090721	0.105530	15560.462891
9152.589204	0.090663	0.105530	15656.747070
9153.574326	1.204757	0.106610	505.997986
9153.575436	1.716006	0.106610	2410.764404
9153.576406	1.679927	0.106610	4040.293457
9153.577292	1.634077	0.106610	5488.085937
9153.578290	1.583423	0.106610	7068.341797
9153.579352	1.532721	0.106610	8696.091797
9153.580241	1.489680	0.106610	10020.417969
9153.581131	1.448793	0.106610	11309.843750
9153.582236	1.403203	0.106610	12860.382812
9153.583204	1.363564	0.106610	14180.313477
9153.584075	0.803624	0.106610	14880.270508
9153.585125	0.094611	0.106610	14979.611328
9153.586136	0.090487	0.106610	15071.093750
9153.587020	0.090516	0.106610	15151.110352
9153.587967	0.090630	0.106610	15236.936523
9153.589011	0.090568	0.106610	15331.489258
9153.589947	0.090524	0.106610	15416.219727
9153.590809	0.090590	0.106610	15494.307617
9153.591838	0.090546	0.106610	15587.479492
9153.592864	0.090509	0.106610	15680.341797
9153.593734	0.090480	0.106610	15759.059570
9154.604559	1.240232	0.106989	632.518250
9154.605626	1.716116	0.106989	2463.613770
9154.606550	1.680227	0.106989	4016.143555
9154.607427	1.633781	0.106989	5448.969238
9154.608482	1.580332	0.106989	7116.219238
9154.609499	1.531362	0.106989	8673.615234
9154.610387	1.489468	0.106989	9996.262695
9154.611367	1.446313	0.106989	11413.649414
9154.612436	1.401478	0.106989	12911.830078
9154.613351	1.363308	0.106989	14159.256836
9154.614220	0.772504	0.106989	14830.562500
9154.615314	0.092736	0.106989	14932.015625
9154.616303	0.090557	0.106989	15021.576172
9154.617193	0.090586	0.106989	15102.197266
9154.618179	0.090579	0.106989	15191.507812
9154.619230	0.090601	0.106989	15286.729492
9154.620124	0.090568	0.106989	15367.697266
9154.621040	0.090575	0.106989	15450.664062
9154.621900	0.090568	0.106989	15528.551758
9154.622919	0.090553	0.106989	15620.825195
9154.623844	0.090538	0.106989	15704.573242
9155.612206	1.296105	0.096515	701.192688
9155.613139	1.717507	0.096515	2303.626953
9155.614071	1.685402	0.096515	3874.421387
9155.614948	1.638442	0.096515	5311.335449
9155.616003	1.585723	0.096515	6984.272461
9155.616896	1.542155	0.096515	8361.416016
9155.617775	1.500384	0.096515	9680.253906
9155.618764	1.456461	0.096515	11120.694336
9155.619722	1.414958	0.096515	12476.224609
9155.620644	1.376990	0.096515	13745.808594
9155.621517	1.178181	0.096515	14774.360352
9155.622553	0.131433	0.096515	14910.525391
9155.623429	0.090461	0.096515	14989.769531
9155.624302	0.090582	0.096515	15068.847656
9155.625202	0.090568	0.096515	15150.358398
9155.626202	0.090546	0.096515	15240.904297
9155.627126	0.090516	0.096515	15324.541016
9155.628008	0.090524	0.096515	15404.382812
9155.629017	0.090608	0.096515	15495.806641
9155.629935	0.090509	0.096515	15578.893555
9155.630858	0.090579	0.096515	15662.498047
9156.645408	1.285807	0.101409	655.761536
9156.646330	1.717324	0.101409	2239.134521
9156.647208	1.689763	0.101409	3722.746582
9156.648173	1.639768	0.101409	5305.123047
9156.649207	1.586221	0.101409	6945.275391
9156.650103	1.542949	0.101409	8327.757812
9156.650970	1.501036	0.101409	9629.156250
9156.652041	1.453162	0.101409	11185.492187
9156.653000	1.412692	0.101409	12540.263672
9156.653879	1.375975	0.101409	13749.746094
9156.654839	1.036011	0.101409	14744.316406
9156.655869	0.108776	0.101409	14856.355469
9156.656765	0.090553	0.101409	14937.491211
9156.657627	0.090542	0.101409	15015.538086
9156.658702	0.090560	0.101409	15112.890625
9156.659640	0.090513	0.101409	15197.791992
9156.660504	0.090538	0.101409	15276.017578
9156.661427	0.090696	0.101409	15359.729492
9156.662493	0.090623	0.101409	15456.333008
9156.663369	0.090568	0.101409	15535.669922
9156.664238	0.090542	0.101409	15614.350586
9157.643703	1.187256	0.084031	501.021973
9157.644727	1.714874	0.084031	2257.053223
9157.645759	1.681732	0.084031	3992.600830
9157.646651	1.634832	0.084031	5450.870605
9157.647595	1.587026	0.084031	6949.023437
9157.648660	1.534860	0.084031	8583.648437
9157.649611	1.490054	0.084031	10000.689453
9157.650483	1.450159	0.084031	11265.227539
9157.651559	1.405616	0.084031	12777.670898
9157.652563	1.363949	0.084031	14147.076172
9157.653466	0.781077	0.084031	14852.388672
9157.654459	0.097419	0.084031	14949.125977
9157.655513	0.090615	0.084031	15044.634766
9157.656407	0.090568	0.084031	15125.602539
9157.657265	0.090619	0.084031	15203.353516
9157.658350	0.090685	0.084031	15301.746094
9157.659341	0.090538	0.084031	15391.469727
9157.660219	0.090557	0.084031	15470.978516
9157.661218	0.090608	0.084031	15561.496094
9157.662269	0.090648	0.084031	15656.767578
9157.663134	0.090575	0.084031	15735.115234
9158.690235	1.193474	0.101615	508.419952
9158.691285	1.714761	0.101615	2308.918701
9158.692320	1.680344	0.101615	4048.074951
9158.693202	1.633656	0.101615	5488.959473
9158.694169	1.585510	0.101615	7022.147949
9158.695230	1.533578	0.101615	8649.274414
9158.696156	1.489406	0.101615	10028.463867
9158.697016	1.449836	0.101615	11275.323242
9158.698067	1.405726	0.101615	12752.741211
9158.699091	1.363539	0.101615	14149.004883
9158.699994	0.777521	0.101615	14851.106445
9158.700974	0.097097	0.101615	14946.261719
9158.702036	0.090612	0.101615	15042.491211
9158.702945	0.090648	0.101615	15124.890625
9158.703809	0.090593	0.101615	15203.163086
9158.704897	0.090732	0.101615	15301.879883
9158.705889	0.090498	0.101615	15391.654297
9158.706778	0.090531	0.101615	15472.136719
9158.707756	0.090725	0.101615	15560.866211
9158.708811	0.090593	0.101615	15656.442383
9158.709702	0.090538	0.101615	15737.112305
